FP1,FP2,F3,F4,C3,C4,P3,P4,O1,O2,F7, F8,T3,T4,T5,T6,FZ,CZ,PZ
1.945310e+02,-3.721680e+02,7.197300e+01,1.485350e+02,5.634800e+01,-5.908200e+01,7.773400e+01,-6.503900e+01,6.679700e+01,6.718800e+01,1.113280e+02,-4.328120e+02,-1.022460e+02,-1.562500e+02,-3.140620e+02,4.101600e+01,1.858400e+02,8.085900e+01,9.521500e+01
1.780270e+02,-3.984370e+02,5.654300e+01,1.187500e+02,4.218800e+01,-4.697300e+01,6.044900e+01,-8.300800e+01,5.752000e+01,5.107400e+01,8.945300e+01,-4.640620e+02,-1.041020e+02,-1.910160e+02,-3.325200e+02,1.953100e+01,1.657230e+02,6.015600e+01,7.382800e+01
1.510740e+02,-4.322270e+02,3.964800e+01,9.072300e+01,2.724600e+01,-3.203100e+01,4.404300e+01,-1.060550e+02,5.410200e+01,2.959000e+01,5.244100e+01,-4.912110e+02,-1.060550e+02,-2.131840e+02,-3.501950e+02,-5.566000e+00,1.450200e+02,3.710900e+01,5.214800e+01
1.323240e+02,-4.571290e+02,1.884800e+01,7.294900e+01,1.992200e+01,-2.265600e+01,3.877000e+01,-1.224610e+02,6.113300e+01,1.367200e+01,4.316400e+01,-5.167970e+02,-1.059570e+02,-2.313480e+02,-3.632810e+02,-2.802700e+01,1.318360e+02,2.197300e+01,4.003900e+01
1.313480e+02,-4.701170e+02,1.210900e+01,5.605500e+01,2.382800e+01,-2.558600e+01,3.710900e+01,-1.395510e+02,5.400400e+01,-8.008000e+00,5.380900e+01,-5.308590e+02,-9.091800e+01,-2.465820e+02,-3.611330e+02,-4.062500e+01,1.289060e+02,1.709000e+01,2.627000e+01
1.191410e+02,-4.900390e+02,-2.051000e+00,3.603500e+01,1.757800e+01,-2.109400e+01,2.060500e+01,-1.591800e+02,3.642600e+01,-2.529300e+01,4.238300e+01,-5.502930e+02,-8.222700e+01,-2.665040e+02,-3.733400e+02,-5.419900e+01,1.164060e+02,2.344000e+00,6.348000e+00
1.291990e+02,-4.716800e+02,1.259800e+01,5.537100e+01,2.900400e+01,-3.515600e+01,2.578100e+01,-1.434570e+02,3.613300e+01,-8.301000e+00,5.175800e+01,-5.285160e+02,-9.082000e+01,-2.467770e+02,-3.679690e+02,-3.330100e+01,1.296870e+02,1.611300e+01,2.168000e+01
1.513670e+02,-4.432620e+02,3.837900e+01,7.890600e+01,4.736300e+01,-5.146500e+01,3.886700e+01,-125,3.584000e+01,9.180000e+00,7.441400e+01,-5.031250e+02,-9.697300e+01,-2.244140e+02,-3.522460e+02,-1.240200e+01,1.490230e+02,3.916000e+01,4.199200e+01
1.625980e+02,-4.267580e+02,5.380900e+01,9.384800e+01,6.025400e+01,-6.171900e+01,5.351600e+01,-1.094730e+02,3.945300e+01,2.002000e+01,8.828100e+01,-4.945310e+02,-9.550800e+01,-2.092770e+02,-3.334960e+02,-3.125000e+00,1.578120e+02,5.400400e+01,5.537100e+01
1.702150e+02,-4.073240e+02,5.800800e+01,1.145510e+02,6.084000e+01,-6.230500e+01,5.488300e+01,-9.716800e+01,3.398400e+01,2.724600e+01,8.584000e+01,-4.791990e+02,-1.210940e+02,-2.025390e+02,-3.307620e+02,1.950000e-01,1.650390e+02,6.103500e+01,6.318400e+01
1.831050e+02,-3.854490e+02,7.002000e+01,1.326170e+02,6.923800e+01,-7.207000e+01,6.191400e+01,-8.095700e+01,3.632800e+01,4.316400e+01,9.335900e+01,-4.655270e+02,-1.365230e+02,-1.933590e+02,-3.210940e+02,1.845700e+01,1.757810e+02,7.412100e+01,7.675800e+01
1.738280e+02,-4.030270e+02,5.527300e+01,1.196290e+02,4.960900e+01,-5.527300e+01,4.560500e+01,-9.843800e+01,2.783200e+01,2.509800e+01,9.599600e+01,-4.867190e+02,-1.208010e+02,-2.161130e+02,-3.417970e+02,-2.930000e+00,1.623050e+02,5.634800e+01,5.722700e+01
1.481450e+02,-4.363280e+02,3.085900e+01,9.121100e+01,3.427700e+01,-3.701200e+01,3.369100e+01,-1.190430e+02,2.714800e+01,5.176000e+00,6.816400e+01,-5.227540e+02,-1.199220e+02,-2.326170e+02,-3.625000e+02,-2.627000e+01,1.403320e+02,3.359400e+01,3.740200e+01
1.331050e+02,-4.567380e+02,1.757800e+01,6.484400e+01,3.212900e+01,-3.418000e+01,2.431600e+01,-1.388670e+02,3.144500e+01,-6.641000e+00,4.580100e+01,-5.125980e+02,-1.434570e+02,-2.413090e+02,-3.759770e+02,-3.984400e+01,1.272460e+02,1.679700e+01,2.509800e+01
1.223630e+02,-4.758790e+02,5.469000e+00,5.693400e+01,3.281200e+01,-3.584000e+01,1.884800e+01,-1.603520e+02,2.959000e+01,-2.480500e+01,3.388700e+01,-5.592770e+02,-1.508790e+02,-2.680660e+02,-3.856450e+02,-6.347700e+01,1.220700e+02,7.910000e+00,1.103500e+01
1.074220e+02,-5.004880e+02,-1.015600e+01,2.382800e+01,2.627000e+01,-3.046900e+01,1.181600e+01,-1.758790e+02,2.343800e+01,-4.160200e+01,2.265600e+01,-5.647460e+02,-1.435550e+02,-2.792970e+02,-3.959960e+02,-8.017600e+01,1.083010e+02,-6.543000e+00,-5.371000e+00
1.208980e+02,-4.791990e+02,6.152000e+00,4.316400e+01,3.554700e+01,-4.179700e+01,1.933600e+01,-1.595700e+02,2.304700e+01,-2.617200e+01,3.378900e+01,-5.449220e+02,-1.464840e+02,-2.592770e+02,-3.932620e+02,-5.732400e+01,1.237300e+02,9.180000e+00,9.570000e+00
1.439450e+02,-4.471680e+02,3.076200e+01,7.099600e+01,5.400400e+01,-5.830100e+01,3.867200e+01,-1.360350e+02,3.027300e+01,-3.711000e+00,6.406300e+01,-5.225590e+02,-1.413090e+02,-2.359380e+02,-3.596680e+02,-3.339800e+01,1.420900e+02,3.466800e+01,3.271500e+01
1.622070e+02,-4.253910e+02,4.892600e+01,8.710900e+01,6.855500e+01,-7.109400e+01,5.791000e+01,-1.172850e+02,4.433600e+01,1.435500e+01,6.923800e+01,-5.036130e+02,-1.388670e+02,-2.219730e+02,-3.299800e+02,-2.353500e+01,1.503910e+02,5.400400e+01,5.146500e+01
1.701170e+02,-4.087890e+02,6.308600e+01,1.074220e+02,6.865200e+01,-7.138700e+01,5.576200e+01,-1.067380e+02,4.189500e+01,2.109400e+01,7.685500e+01,-4.896480e+02,-1.666990e+02,-2.077150e+02,-3.382810e+02,-1.494100e+01,1.548830e+02,6.171900e+01,5.849600e+01
1.855470e+02,-3.840820e+02,9.326200e+01,1.322270e+02,7.646500e+01,-7.871100e+01,5.498000e+01,-9.101600e+01,3.691400e+01,3.330100e+01,8.554700e+01,-4.646480e+02,-1.866210e+02,-1.879880e+02,-3.407230e+02,6.250000e+00,1.693360e+02,7.627000e+01,6.953100e+01
1.731450e+02,-4.066410e+02,7.285200e+01,1.065430e+02,6.191400e+01,-6.718800e+01,4.062500e+01,-1.035160e+02,2.841800e+01,2.128900e+01,7.851600e+01,-4.944340e+02,-1.962890e+02,-2.190430e+02,-3.514650e+02,-5.859000e+00,1.530270e+02,6.035200e+01,5.273400e+01
1.465820e+02,-4.409180e+02,4.287100e+01,7.910200e+01,4.355500e+01,-4.804700e+01,2.861300e+01,-1.191410e+02,3.066400e+01,7.910000e+00,5.127000e+01,-5.259770e+02,-1.899410e+02,-2.447270e+02,-3.620120e+02,-2.666000e+01,1.301760e+02,3.779300e+01,3.584000e+01
1.252930e+02,-4.657230e+02,1.718700e+01,6.494100e+01,3.486300e+01,-3.652300e+01,1.718700e+01,-1.409180e+02,2.793000e+01,-1.054700e+01,4.209000e+01,-5.382810e+02,-1.727540e+02,-2.663090e+02,-3.729490e+02,-5.322300e+01,1.166020e+02,1.992200e+01,1.992200e+01
1.212890e+02,-4.756840e+02,-1.503900e+01,5.625000e+01,3.183600e+01,-3.212900e+01,2.382800e+01,-150,3.964800e+01,-1.709000e+01,5.752000e+01,-5.513670e+02,-1.578120e+02,-2.736330e+02,-3.684570e+02,-6.718800e+01,1.141600e+02,1.455100e+01,1.640600e+01
1.061520e+02,-5.015620e+02,-1.962900e+01,2.089800e+01,2.939500e+01,-3.222700e+01,2.304700e+01,-1.667970e+02,4.765600e+01,-2.793000e+01,3.613300e+01,-5.710940e+02,-1.516600e+02,-2.792970e+02,-3.718750e+02,-7.998000e+01,9.834000e+01,0,4.785000e+00
1.143550e+02,-4.862300e+02,-1.465000e+00,3.505900e+01,4.003900e+01,-4.609400e+01,3.398400e+01,-1.498050e+02,5.478500e+01,-1.210900e+01,4.345700e+01,-5.485350e+02,-1.540040e+02,-2.573240e+02,-3.591800e+02,-5.410200e+01,1.097660e+02,1.416000e+01,2.177700e+01
1.372070e+02,-4.526370e+02,2.236300e+01,7.080100e+01,5.459000e+01,-5.878900e+01,4.482400e+01,-1.280270e+02,5.205100e+01,7.031000e+00,5.771500e+01,-5.236330e+02,-1.632810e+02,-2.363280e+02,-3.381840e+02,-3.085900e+01,1.325200e+02,3.779300e+01,4.209000e+01
1.522460e+02,-4.323240e+02,3.769500e+01,9.521500e+01,6.425800e+01,-6.660200e+01,5.752000e+01,-1.114260e+02,5.605500e+01,2.285200e+01,6.328100e+01,-5.170900e+02,-1.718750e+02,-2.244140e+02,-3.257810e+02,-2.050800e+01,1.470700e+02,5.293000e+01,5.791000e+01
1.565430e+02,-4.207030e+02,4.619100e+01,1.073240e+02,6.445300e+01,-6.679700e+01,5.830100e+01,-9.843800e+01,5.263700e+01,3.378900e+01,7.158200e+01,-5.033200e+02,-1.817380e+02,-2.097660e+02,-3.251950e+02,-6.445000e+00,1.526370e+02,5.849600e+01,6.748000e+01
1.711910e+02,-3.973630e+02,6.425800e+01,1.169920e+02,7.480500e+01,-7.890600e+01,6.845700e+01,-7.919900e+01,5.615200e+01,5.175800e+01,7.988300e+01,-4.779300e+02,-2.038090e+02,-1.945310e+02,-3.120120e+02,9.473000e+00,1.638670e+02,7.304700e+01,8.427700e+01
1.476560e+02,-4.283200e+02,4.726600e+01,8.896500e+01,6.748000e+01,-7.285200e+01,4.960900e+01,-1.059570e+02,3.623000e+01,2.148400e+01,3.007800e+01,-5.228520e+02,-2.247070e+02,-2.367190e+02,-3.334960e+02,-2.685500e+01,1.402340e+02,5.166000e+01,5.742200e+01
1.375000e+02,-4.430660e+02,2.998000e+01,7.939500e+01,4.550800e+01,-5.058600e+01,3.232400e+01,-1.204100e+02,2.919900e+01,6.934000e+00,5.507800e+01,-5.226560e+02,-1.916020e+02,-2.435550e+02,-3.550780e+02,-3.818400e+01,1.305660e+02,3.232400e+01,3.925800e+01
1.299800e+02,-4.554690e+02,1.308600e+01,6.777300e+01,3.613300e+01,-3.789100e+01,3.037100e+01,-1.266600e+02,4.091800e+01,6.445000e+00,5.478500e+01,-5.122070e+02,-2.012700e+02,-2.322270e+02,-3.681640e+02,-3.173800e+01,1.251950e+02,2.011700e+01,3.437500e+01
1.225590e+02,-4.723630e+02,2.832000e+00,5.693400e+01,4.140600e+01,-4.169900e+01,3.300800e+01,-1.430660e+02,4.843800e+01,-5.273000e+00,2.460900e+01,-5.389650e+02,-1.991210e+02,-2.536130e+02,-3.740230e+02,-4.970700e+01,1.203120e+02,1.367200e+01,2.675800e+01
1.117190e+02,-4.923830e+02,-1.367200e+01,3.906200e+01,2.636700e+01,-2.910200e+01,2.099600e+01,-1.616210e+02,4.160200e+01,-2.509800e+01,8.105000e+00,-5.642580e+02,-1.813480e+02,-2.750980e+02,-3.918950e+02,-7.109400e+01,1.094730e+02,-1.660000e+00,9.863000e+00
1.249020e+02,-4.752930e+02,5.469000e+00,5.048800e+01,3.076200e+01,-3.740200e+01,2.109400e+01,-1.445310e+02,3.378900e+01,-1.025400e+01,2.734400e+01,-5.287110e+02,-1.706050e+02,-2.498050e+02,-3.926760e+02,-4.834000e+01,1.225590e+02,1.064500e+01,2.138700e+01
1.469730e+02,-4.425780e+02,2.607400e+01,7.793000e+01,4.707000e+01,-5.341800e+01,3.837900e+01,-1.224610e+02,4.023400e+01,1.123000e+01,6.279300e+01,-5.149410e+02,-1.661130e+02,-2.361330e+02,-3.770510e+02,-2.578100e+01,1.425780e+02,3.339800e+01,4.355500e+01
1.641600e+02,-4.167970e+02,4.091800e+01,1.046870e+02,5.976600e+01,-6.259800e+01,5.302700e+01,-1.076170e+02,4.599600e+01,2.949200e+01,7.412100e+01,-5.041020e+02,-1.781250e+02,-2.205080e+02,-3.555660e+02,-1.064500e+01,1.571290e+02,5.224600e+01,6.093700e+01
1.678710e+02,-4.036130e+02,4.853500e+01,1.202150e+02,6.064500e+01,-6.220700e+01,5.654300e+01,-9.580100e+01,4.404300e+01,3.779300e+01,6.474600e+01,-4.895510e+02,-1.994140e+02,-2.069340e+02,-3.484370e+02,4.102000e+00,1.596680e+02,5.791000e+01,6.855500e+01
1.806640e+02,-3.820310e+02,6.396500e+01,1.333980e+02,6.845700e+01,-7.128900e+01,6.972700e+01,-7.666000e+01,5.107400e+01,5.195300e+01,7.558600e+01,-4.756840e+02,-2.103520e+02,-1.930660e+02,-3.392580e+02,2.519500e+01,1.703130e+02,7.265600e+01,8.486300e+01
1.743160e+02,-3.961910e+02,5.625000e+01,1.245120e+02,5.830100e+01,-6.298800e+01,5.380900e+01,-9.726600e+01,3.886700e+01,2.890600e+01,5.771500e+01,-4.852540e+02,-2.227540e+02,-1.890620e+02,-3.565430e+02,-3.125000e+00,1.599610e+02,5.791000e+01,6.406300e+01
1.546870e+02,-4.255860e+02,3.613300e+01,9.023400e+01,4.394500e+01,-4.814500e+01,3.281200e+01,-1.178710e+02,2.959000e+01,9.082000e+00,4.199200e+01,-4.884770e+02,-2.259770e+02,-2.115230e+02,-3.794920e+02,-2.568400e+01,1.405270e+02,3.564500e+01,4.218800e+01
1.353520e+02,-4.499020e+02,1.103500e+01,6.455100e+01,3.310500e+01,-3.544900e+01,1.962900e+01,-1.313480e+02,2.255900e+01,-2.734000e+00,3.300800e+01,-5.068360e+02,-2.082030e+02,-2.354490e+02,-3.924800e+02,-3.447300e+01,1.227540e+02,2.031300e+01,2.802700e+01
1.321290e+02,-4.615230e+02,8.008000e+00,5.576200e+01,3.505900e+01,-3.681600e+01,1.630900e+01,-1.423830e+02,1.767600e+01,-1.074200e+01,3.408200e+01,-5.266600e+02,-1.865230e+02,-2.537110e+02,-3.922850e+02,-4.296900e+01,1.199220e+02,1.845700e+01,1.728500e+01
1.178710e+02,-4.858400e+02,-3.125000e+00,3.261700e+01,2.695300e+01,-3.027300e+01,-7.810000e-01,-1.715820e+02,1.758000e+00,-3.906200e+01,1.826200e+01,-5.554690e+02,-1.647460e+02,-2.827150e+02,-4.121090e+02,-7.402300e+01,1.055660e+02,1.855000e+00,-7.129000e+00
1.271480e+02,-4.683590e+02,1.758000e+00,5.127000e+01,3.252000e+01,-3.808600e+01,9.668000e+00,-1.587890e+02,9.863000e+00,-2.714800e+01,4.365200e+01,-5.388670e+02,-1.710940e+02,-2.643550e+02,-4.086910e+02,-6.513700e+01,1.161130e+02,1.298800e+01,7.324000e+00
1.531250e+02,-4.353520e+02,3.418000e+01,8.046900e+01,5.058600e+01,-5.517600e+01,2.959000e+01,-1.372070e+02,2.099600e+01,-5.664000e+00,7.314500e+01,-5.237300e+02,-1.782230e+02,-2.407230e+02,-3.883790e+02,-4.394500e+01,1.387700e+02,3.828100e+01,3.017600e+01
1.698240e+02,-4.084960e+02,4.423800e+01,1.081050e+02,6.279300e+01,-6.396500e+01,5.009800e+01,-1.213870e+02,3.359400e+01,9.668000e+00,7.627000e+01,-5.046870e+02,-1.824220e+02,-2.223630e+02,-3.616210e+02,-2.793000e+01,1.534180e+02,5.771500e+01,4.980500e+01
1.734370e+02,-3.970700e+02,4.746100e+01,1.153320e+02,6.210900e+01,-6.308600e+01,5.322300e+01,-1.040040e+02,3.398400e+01,2.275400e+01,7.334000e+01,-4.742190e+02,-1.882810e+02,-1.979490e+02,-3.532230e+02,-3.906000e+00,1.560550e+02,6.464800e+01,5.976600e+01
1.916990e+02,-3.699220e+02,6.787100e+01,1.428710e+02,6.777300e+01,-6.972700e+01,5.664100e+01,-8.066400e+01,3.252000e+01,3.984400e+01,8.730500e+01,-4.508790e+02,-2.042970e+02,-1.808590e+02,-3.414060e+02,1.933600e+01,1.739260e+02,8.144500e+01,7.490200e+01
1.833980e+02,-3.843750e+02,5.898400e+01,1.326170e+02,5.449200e+01,-5.947300e+01,3.759800e+01,-1.005860e+02,1.601600e+01,1.796900e+01,6.630900e+01,-4.912110e+02,-2.196290e+02,-2.024410e+02,-3.674800e+02,-1.337900e+01,1.626950e+02,6.621100e+01,5.341800e+01
1.664060e+02,-4.083010e+02,3.906200e+01,1.040040e+02,4.209000e+01,-4.687500e+01,2.128900e+01,-1.213870e+02,1.103500e+01,2.148000e+00,4.873000e+01,-5.004880e+02,-2.083980e+02,-2.125980e+02,-3.858400e+02,-2.539100e+01,1.445310e+02,4.502000e+01,3.339800e+01
1.485350e+02,-4.322270e+02,2.207000e+01,8.271500e+01,3.144500e+01,-3.369100e+01,1.191400e+01,-1.360350e+02,1.621100e+01,-6.738000e+00,3.613300e+01,-5.111330e+02,-200,-2.316410e+02,-4.044920e+02,-3.544900e+01,1.308590e+02,2.929700e+01,2.216800e+01
1.471680e+02,-4.434570e+02,1.669900e+01,7.558600e+01,3.183600e+01,-3.369100e+01,9.863000e+00,-150,1.630900e+01,-1.767600e+01,3.134800e+01,-5.351560e+02,-1.918950e+02,-2.524410e+02,-4.079100e+02,-5.468800e+01,1.302730e+02,25,1.357400e+01
1.267580e+02,-4.761720e+02,-6.055000e+00,4.765600e+01,2.070300e+01,-2.509800e+01,-4.492000e+00,-1.729490e+02,5.859000e+00,-4.052700e+01,1.445300e+01,-5.680660e+02,-1.869140e+02,-2.811520e+02,-4.189450e+02,-8.642600e+01,1.122070e+02,6.543000e+00,-8.105000e+00
1.284180e+02,-4.679690e+02,-1.172000e+00,5.302700e+01,2.685500e+01,-3.320300e+01,4.004000e+00,-1.597660e+02,1.181600e+01,-2.871100e+01,1.074200e+01,-5.451170e+02,-1.875980e+02,-2.678710e+02,-4.056640e+02,-6.513700e+01,1.180660e+02,1.669900e+01,5.176000e+00
1.494140e+02,-4.383790e+02,2.773400e+01,7.968800e+01,4.560500e+01,-5.039100e+01,2.060500e+01,-1.384770e+02,1.513700e+01,-1.005900e+01,2.558600e+01,-5.220700e+02,-1.829100e+02,-2.416990e+02,-3.861330e+02,-4.062500e+01,1.375000e+02,3.984400e+01,2.558600e+01
1.723630e+02,-4.097660e+02,5.468800e+01,1.026370e+02,6.289100e+01,-6.503900e+01,3.632800e+01,-1.183590e+02,2.197300e+01,6.934000e+00,5.097700e+01,-4.942380e+02,-1.866210e+02,-2.213870e+02,-3.774410e+02,-2.207000e+01,1.541990e+02,6.044900e+01,4.345700e+01
1.744140e+02,-4.007810e+02,7.324200e+01,1.125980e+02,6.503900e+01,-6.630900e+01,3.544900e+01,-1.100590e+02,1.816400e+01,1.201200e+01,3.388700e+01,-4.901370e+02,-2.173830e+02,-2.119140e+02,-3.800780e+02,-1.543000e+01,1.556640e+02,6.503900e+01,4.980500e+01
1.879880e+02,-3.707030e+02,7.021500e+01,1.419920e+02,7.265600e+01,-7.343700e+01,5.302700e+01,-8.486300e+01,3.007800e+01,3.369100e+01,6.826200e+01,-4.609380e+02,-2.262700e+02,-1.769530e+02,-3.466800e+02,1.240200e+01,1.688480e+02,8.125000e+01,7.216800e+01
1.817380e+02,-3.833980e+02,6.855500e+01,1.190430e+02,6.171900e+01,-6.640600e+01,4.248000e+01,-9.267600e+01,2.177700e+01,25,7.431600e+01,-4.780270e+02,-225,-1.913090e+02,-3.465820e+02,4.102000e+00,1.566410e+02,6.953100e+01,5.898400e+01
1.633790e+02,-4.125980e+02,4.306600e+01,9.345700e+01,4.511700e+01,-4.970700e+01,2.373000e+01,-1.175780e+02,1.181600e+01,4.004000e+00,6.699200e+01,-5.072270e+02,-2.052730e+02,-2.208010e+02,-3.635740e+02,-2.412100e+01,1.362300e+02,4.648400e+01,3.632800e+01
1.477540e+02,-4.328120e+02,1.367000e+00,8.095700e+01,2.773400e+01,-3.056600e+01,1.084000e+01,-1.332030e+02,1.191400e+01,-8.203000e+00,5.986300e+01,-5.173830e+02,-1.938480e+02,-2.282230e+02,-3.830080e+02,-4.228500e+01,1.234370e+02,2.783200e+01,2.255900e+01
1.375000e+02,-4.506840e+02,1.465000e+00,6.582000e+01,3.066400e+01,-3.310500e+01,9.570000e+00,-1.498050e+02,1.533200e+01,-2.050800e+01,4.082000e+01,-5.264650e+02,-1.934570e+02,-2.481450e+02,-3.946290e+02,-5.937500e+01,1.196290e+02,2.294900e+01,1.386700e+01
1.186520e+02,-4.808590e+02,-1.015600e+01,3.408200e+01,2.490200e+01,-2.793000e+01,1.270000e+00,-1.736330e+02,9.766000e+00,-4.326200e+01,2.529300e+01,-5.603520e+02,-1.876950e+02,-2.898440e+02,-4.132810e+02,-8.701200e+01,1.036130e+02,6.348000e+00,-6.348000e+00
1.204100e+02,-4.743160e+02,-3.418000e+00,4.375000e+01,2.871100e+01,-3.388700e+01,8.496000e+00,-1.626950e+02,1.503900e+01,-3.740200e+01,1.005900e+01,-5.518550e+02,-1.896480e+02,-2.820310e+02,-4.084960e+02,-7.597700e+01,1.081050e+02,1.337900e+01,3.320000e+00
1.458010e+02,-4.400390e+02,2.773400e+01,7.363300e+01,5.068400e+01,-5.634800e+01,3.291000e+01,-1.416020e+02,3.017600e+01,-1.484400e+01,1.982400e+01,-5.259770e+02,-2.053710e+02,-2.445310e+02,-3.862300e+02,-4.296900e+01,1.293950e+02,3.808600e+01,2.871100e+01
1.581050e+02,-4.185550e+02,4.970700e+01,9.375000e+01,7.011700e+01,-7.314500e+01,4.580100e+01,-1.317380e+02,2.988300e+01,-5.957000e+00,1.445300e+01,-5.226560e+02,-2.235350e+02,-2.296880e+02,-3.704100e+02,-3.896500e+01,1.400390e+02,5.488300e+01,4.130900e+01
1.739260e+02,-3.959960e+02,5.214800e+01,1.159180e+02,6.015600e+01,-6.240200e+01,4.619100e+01,-1.122070e+02,2.910200e+01,1.191400e+01,7.148400e+01,-4.895510e+02,-1.989260e+02,-2.046880e+02,-3.533200e+02,-1.806600e+01,1.506840e+02,6.416000e+01,5.498000e+01
1.930660e+02,-3.684570e+02,6.113300e+01,1.405270e+02,6.630900e+01,-6.845700e+01,5.468800e+01,-8.310500e+01,3.359400e+01,3.652300e+01,9.863300e+01,-4.583010e+02,-2.062500e+02,-1.792970e+02,-3.458980e+02,1.679700e+01,1.666990e+02,8.125000e+01,7.617200e+01
1.819340e+02,-3.852540e+02,5.615200e+01,1.228520e+02,5.908200e+01,-6.425800e+01,4.277300e+01,-1.010740e+02,2.363300e+01,2.148400e+01,8.935500e+01,-4.765630e+02,-2.049800e+02,-2.025390e+02,-3.618160e+02,-6.641000e+00,1.547850e+02,6.796900e+01,5.957000e+01
1.570310e+02,-4.169920e+02,3.046900e+01,1.036130e+02,4.169900e+01,-4.668000e+01,2.236300e+01,-1.273440e+02,1.181600e+01,-1.950000e-01,5.322300e+01,-5.201170e+02,-2.031250e+02,-2.359380e+02,-3.874020e+02,-3.652300e+01,1.342770e+02,4.433600e+01,3.447300e+01
1.397460e+02,-4.376950e+02,7.715000e+00,8.662100e+01,2.763700e+01,-2.851600e+01,9.570000e+00,-1.371090e+02,1.279300e+01,-3.809000e+00,3.076200e+01,-5.380860e+02,-2.222660e+02,-2.384770e+02,-4.078130e+02,-4.599600e+01,1.221680e+02,2.773400e+01,2.275400e+01
1.375000e+02,-4.488280e+02,9.082000e+00,5.732400e+01,3.300800e+01,-3.320300e+01,1.259800e+01,-1.413090e+02,1.914100e+01,-6.250000e+00,3.818400e+01,-5.218750e+02,-2.063480e+02,-2.341800e+02,-4.014650e+02,-4.794900e+01,1.196290e+02,2.353500e+01,1.855500e+01
1.209960e+02,-4.749020e+02,-7.617000e+00,3.183600e+01,2.519500e+01,-2.793000e+01,3.418000e+00,-1.679690e+02,1.474600e+01,-3.535200e+01,2.363300e+01,-5.470700e+02,-1.915040e+02,-2.669920e+02,-4.083980e+02,-7.656300e+01,1.039060e+02,6.445000e+00,-2.051000e+00
125,-4.658200e+02,-2.441000e+00,4.589800e+01,2.841800e+01,-3.398400e+01,8.203000e+00,-1.700200e+02,1.933600e+01,-3.935500e+01,2.451200e+01,-5.397460e+02,-1.915040e+02,-2.653320e+02,-4.086910e+02,-7.109400e+01,1.101560e+02,1.298800e+01,4.590000e+00
1.466800e+02,-4.401370e+02,2.265600e+01,7.002000e+01,4.326200e+01,-4.824200e+01,2.539100e+01,-1.464840e+02,2.548800e+01,-2.021500e+01,4.736300e+01,-5.326170e+02,-1.920900e+02,-2.652340e+02,-3.861330e+02,-4.785200e+01,1.272460e+02,3.476600e+01,2.607400e+01
1.681640e+02,-4.134770e+02,4.472700e+01,9.492200e+01,5.556600e+01,-5.849600e+01,3.847700e+01,-1.244140e+02,2.724600e+01,-1.950000e-01,6.367200e+01,-5.191410e+02,-2.000980e+02,-2.397460e+02,-3.613280e+02,-2.773400e+01,1.455080e+02,5.546900e+01,4.345700e+01
1.747070e+02,-3.938480e+02,4.921900e+01,1.170900e+02,5.576200e+01,-5.986300e+01,3.554700e+01,-1.136720e+02,2.080100e+01,1.543000e+01,6.523400e+01,-4.814450e+02,-2.055660e+02,-1.985350e+02,-3.568360e+02,-1.425800e+01,1.522460e+02,6.201200e+01,5.039100e+01
1.932620e+02,-3.625000e+02,7.490200e+01,1.443360e+02,6.757800e+01,-7.119100e+01,4.892600e+01,-9.101600e+01,3.017600e+01,3.720700e+01,5.400400e+01,-4.453130e+02,-2.269530e+02,-1.756840e+02,-3.434570e+02,9.473000e+00,1.705080e+02,8.066400e+01,7.099600e+01
1.798830e+02,-3.825200e+02,7.060500e+01,1.261720e+02,6.425800e+01,-6.875000e+01,3.740200e+01,-1.084960e+02,1.699200e+01,1.699200e+01,4.443400e+01,-4.785160e+02,-2.331050e+02,-2.084960e+02,-3.534180e+02,-1.474600e+01,1.553710e+02,6.767600e+01,5.293000e+01
1.624020e+02,-4.055660e+02,4.150400e+01,1.149410e+02,4.111300e+01,-4.589800e+01,1.953100e+01,-1.269530e+02,1.318400e+01,7.810000e-01,4.902300e+01,-500,-2.253910e+02,-2.237300e+02,-3.795900e+02,-3.164100e+01,1.395510e+02,4.521500e+01,3.310500e+01
1.472660e+02,-4.250980e+02,1.464800e+01,1.013670e+02,1.982400e+01,-2.246100e+01,5.762000e+00,-1.373050e+02,1.572300e+01,-5.566000e+00,4.033200e+01,-5.099610e+02,-2.138670e+02,-2.333980e+02,-4.006840e+02,-3.642600e+01,1.288090e+02,2.744100e+01,2.119100e+01
1.396480e+02,-4.430660e+02,5.469000e+00,6.523400e+01,2.285200e+01,-2.451200e+01,7.813000e+00,-1.444340e+02,2.138700e+01,-1.123000e+01,3.867200e+01,-5.225590e+02,-2.048830e+02,-2.408200e+02,-4.015620e+02,-4.472700e+01,1.211910e+02,2.138700e+01,1.494100e+01
1.254880e+02,-4.687500e+02,-6.738000e+00,3.710900e+01,2.050800e+01,-2.363300e+01,1.465000e+00,-1.660160e+02,1.816400e+01,-3.115200e+01,3.388700e+01,-5.451170e+02,-1.916990e+02,-2.599610e+02,-4.082030e+02,-7.031200e+01,1.061520e+02,6.152000e+00,-3.613000e+00
1.263670e+02,-4.631840e+02,-9.770000e-01,4.726600e+01,25,-3.261700e+01,6.641000e+00,-1.649410e+02,2.080100e+01,-3.076200e+01,3.066400e+01,-5.401370e+02,-1.821290e+02,-2.543950e+02,-4.054690e+02,-6.044900e+01,1.095700e+02,1.093700e+01,1.953000e+00
1.478520e+02,-4.333010e+02,2.343800e+01,7.685500e+01,4.003900e+01,-4.687500e+01,2.519500e+01,-1.438480e+02,3.095700e+01,-1.142600e+01,5.273400e+01,-5.106450e+02,-2.026370e+02,-2.233400e+02,-3.912110e+02,-4.121100e+01,1.304690e+02,3.398400e+01,2.519500e+01
1.716800e+02,-4.024410e+02,4.882800e+01,1.053710e+02,5.566400e+01,-5.937500e+01,3.466800e+01,-1.293950e+02,2.216800e+01,2.344000e+00,7.119100e+01,-4.881840e+02,-2.017580e+02,-2.080080e+02,-3.733400e+02,-3.535200e+01,1.505860e+02,5.429700e+01,3.769500e+01
1.755860e+02,-3.900390e+02,5.595700e+01,1.218750e+02,5.546900e+01,-5.722700e+01,3.457000e+01,-1.215820e+02,1.650400e+01,9.180000e+00,7.294900e+01,-5.009770e+02,-2.035160e+02,-2.179690e+02,-3.613280e+02,-2.128900e+01,1.550780e+02,5.996100e+01,4.394500e+01
1.911130e+02,-3.632810e+02,8.427700e+01,1.454100e+02,6.689500e+01,-6.943400e+01,5.205100e+01,-9.892600e+01,3.056600e+01,3.232400e+01,8.476600e+01,-4.658200e+02,-2.181640e+02,-1.875980e+02,-3.430660e+02,1.416000e+01,1.704100e+02,7.851600e+01,6.582000e+01
1.852540e+02,-3.747070e+02,8.603500e+01,1.310550e+02,6.377000e+01,-6.865200e+01,4.462900e+01,-1.036130e+02,2.294900e+01,2.587900e+01,6.923800e+01,-4.751950e+02,-2.192380e+02,-1.956050e+02,-3.526370e+02,5.859000e+00,1.613280e+02,7.060500e+01,5.439500e+01
1.693360e+02,-3.969730e+02,3.330100e+01,1.117190e+02,4.091800e+01,-4.482400e+01,2.851600e+01,-1.167970e+02,1.894500e+01,1.523400e+01,6.396500e+01,-4.856450e+02,-1.973630e+02,-2.146480e+02,-3.654300e+02,-1.269500e+01,1.441410e+02,4.785200e+01,3.671900e+01
1.439450e+02,-4.267580e+02,1.230500e+01,9.150400e+01,2.548800e+01,-2.793000e+01,9.277000e+00,-1.383790e+02,1.064500e+01,-7.324000e+00,2.822300e+01,-5.095700e+02,-1.992190e+02,-2.462890e+02,-3.918950e+02,-3.828100e+01,1.250980e+02,2.568400e+01,1.582000e+01
1.385740e+02,-4.419920e+02,1.250000e+01,7.939500e+01,2.627000e+01,-2.841800e+01,7.813000e+00,-1.540040e+02,1.279300e+01,-2.128900e+01,1.337900e+01,-5.481450e+02,-1.971680e+02,-2.511720e+02,-4.018550e+02,-5.195300e+01,1.222660e+02,1.962900e+01,5.762000e+00
1.326170e+02,-4.606450e+02,-2.832000e+00,5.058600e+01,2.363300e+01,-2.822300e+01,7.617000e+00,-1.729490e+02,1.865200e+01,-3.271500e+01,3.388700e+01,-5.477540e+02,-1.739260e+02,-2.505860e+02,-4.077150e+02,-6.523400e+01,1.127930e+02,8.496000e+00,-6.641000e+00
1.385740e+02,-4.517580e+02,4.004000e+00,5.029300e+01,2.929700e+01,-3.496100e+01,1.240200e+01,-1.694340e+02,2.246100e+01,-2.851600e+01,4.511700e+01,-5.176760e+02,-1.657230e+02,-2.435550e+02,-4.049800e+02,-6.230500e+01,1.185550e+02,1.484400e+01,-7.810000e-01
1.566410e+02,-4.228520e+02,2.705100e+01,8.076200e+01,4.550800e+01,-5.224600e+01,2.929700e+01,-1.476560e+02,2.480500e+01,-9.766000e+00,4.843800e+01,-5.006840e+02,-1.695310e+02,-2.244140e+02,-3.785160e+02,-3.877000e+01,1.374020e+02,3.720700e+01,1.962900e+01
1.814450e+02,-3.936520e+02,5.488300e+01,1.041020e+02,6.357400e+01,-6.630900e+01,4.834000e+01,-1.254880e+02,3.232400e+01,7.129000e+00,6.591800e+01,-4.907230e+02,-1.646480e+02,-2.093750e+02,-3.512700e+02,-1.884800e+01,1.573240e+02,6.132800e+01,3.974600e+01
1.914060e+02,-3.763670e+02,6.650400e+01,1.214840e+02,6.406300e+01,-6.464800e+01,5.097700e+01,-1.147460e+02,3.105500e+01,1.240200e+01,7.998000e+01,-4.764650e+02,-1.892580e+02,-1.994140e+02,-3.593750e+02,-9.961000e+00,1.643550e+02,6.943400e+01,4.873000e+01
1.984370e+02,-3.555660e+02,7.822300e+01,1.479490e+02,7.119100e+01,-7.334000e+01,6.318400e+01,-9.296900e+01,3.935500e+01,3.222700e+01,9.121100e+01,-4.463870e+02,-2.078120e+02,-1.720700e+02,-3.497070e+02,1.113300e+01,1.742190e+02,8.476600e+01,6.757800e+01
1.927730e+02,-3.623050e+02,6.503900e+01,1.410160e+02,6.367200e+01,-6.933600e+01,5.019500e+01,-9.570300e+01,2.187500e+01,2.880900e+01,8.867200e+01,-4.607420e+02,-2.092770e+02,-1.825200e+02,-3.557620e+02,8.398000e+00,1.666020e+02,7.753900e+01,5.742200e+01
1.701170e+02,-3.949220e+02,4.394500e+01,1.101560e+02,4.951200e+01,-5.332000e+01,3.505900e+01,-1.175780e+02,1.718700e+01,9.473000e+00,7.216800e+01,-4.921880e+02,-1.968750e+02,-2.124020e+02,-3.691410e+02,-1.748000e+01,1.463870e+02,5.644500e+01,3.652300e+01
1.481450e+02,-4.255860e+02,2.783200e+01,8.457000e+01,3.681600e+01,-3.916000e+01,1.738300e+01,-1.417970e+02,1.210900e+01,-1.044900e+01,4.267600e+01,-5.089840e+02,-1.936520e+02,-2.332030e+02,-3.916020e+02,-4.726600e+01,1.296870e+02,3.662100e+01,1.855500e+01
1.428710e+02,-4.407230e+02,2.724600e+01,7.246100e+01,3.759800e+01,-3.945300e+01,1.210900e+01,-1.559570e+02,1.181600e+01,-2.216800e+01,3.789100e+01,-5.256840e+02,-1.875980e+02,-2.489260e+02,-4.068360e+02,-6.181600e+01,1.274410e+02,3.115200e+01,9.570000e+00
1.276370e+02,-4.663090e+02,4.102000e+00,4.892600e+01,2.802700e+01,-3.134800e+01,4.590000e+00,-1.708010e+02,9.473000e+00,-3.564500e+01,1.699200e+01,-5.566410e+02,-1.853520e+02,-2.813480e+02,-4.209960e+02,-7.412100e+01,1.139650e+02,1.718700e+01,-5.371000e+00
1.226560e+02,-4.691410e+02,9.770000e-01,5.146500e+01,2.841800e+01,-3.408200e+01,5.762000e+00,-1.710940e+02,1.113300e+01,-3.808600e+01,1.533200e+01,-5.708980e+02,-1.791020e+02,-2.796870e+02,-4.217770e+02,-7.265600e+01,1.131840e+02,1.806600e+01,-1.367000e+00
1.465820e+02,-4.353520e+02,2.998000e+01,7.793000e+01,4.755900e+01,-5.351600e+01,3.125000e+01,-1.448240e+02,2.968800e+01,-1.162100e+01,4.619100e+01,-5.300780e+02,-1.787110e+02,-2.428710e+02,-3.897460e+02,-4.560500e+01,1.344730e+02,4.365200e+01,2.724600e+01
1.678710e+02,-4.082030e+02,5.185500e+01,9.775400e+01,6.269500e+01,-6.699200e+01,5.332000e+01,-1.261720e+02,4.345700e+01,6.152000e+00,6.552700e+01,-5.078120e+02,-1.912110e+02,-2.202150e+02,-3.667970e+02,-2.988300e+01,1.508790e+02,6.543000e+01,4.843800e+01
1.735350e+02,-3.956050e+02,5.898400e+01,1.083980e+02,6.582000e+01,-6.845700e+01,4.443400e+01,-1.140630e+02,2.353500e+01,1.240200e+01,4.228500e+01,-4.930660e+02,-2.162110e+02,-2.040040e+02,-3.742190e+02,-1.601600e+01,1.536130e+02,7.168000e+01,5.146500e+01
1.767580e+02,-3.773440e+02,7.109400e+01,1.315430e+02,7.714800e+01,-7.900400e+01,4.775400e+01,-9.726600e+01,1.552700e+01,2.724600e+01,4.453100e+01,-4.731450e+02,-2.302730e+02,-1.913090e+02,-3.684570e+02,-9.770000e-01,1.596680e+02,8.330100e+01,6.377000e+01
1.780270e+02,-3.747070e+02,6.787100e+01,1.351560e+02,6.279300e+01,-6.669900e+01,4.931600e+01,-9.423800e+01,2.324200e+01,2.929700e+01,7.949200e+01,-4.761720e+02,-2.010740e+02,-1.961910e+02,-3.613280e+02,-3.711000e+00,1.592770e+02,8.105500e+01,6.533200e+01
1.616210e+02,-4.042970e+02,4.228500e+01,1.048830e+02,4.169900e+01,-4.589800e+01,3.457000e+01,-1.124020e+02,2.246100e+01,1.582000e+01,8.085900e+01,-4.987300e+02,-1.822270e+02,-2.161130e+02,-3.726560e+02,-2.177700e+01,1.415040e+02,6.015600e+01,4.814500e+01
1.407230e+02,-4.334960e+02,1.103500e+01,8.125000e+01,2.802700e+01,-3.046900e+01,1.435500e+01,-1.370120e+02,1.084000e+01,-6.055000e+00,4.824200e+01,-5.246090e+02,-1.808590e+02,-2.424800e+02,-3.908200e+02,-4.541000e+01,1.220700e+02,3.740200e+01,2.636700e+01
1.333010e+02,-4.485350e+02,1.054700e+01,6.953100e+01,2.744100e+01,-2.910200e+01,1.191400e+01,-1.526370e+02,1.591800e+01,-2.099600e+01,3.720700e+01,-5.429690e+02,-1.843750e+02,-2.545900e+02,-4.025390e+02,-6.406300e+01,1.180660e+02,2.978500e+01,1.669900e+01
1.205080e+02,-4.695310e+02,-7.810000e-01,4.199200e+01,2.480500e+01,-2.802700e+01,1.142600e+01,-1.664060e+02,2.314500e+01,-3.359400e+01,2.978500e+01,-5.661130e+02,-1.723630e+02,-2.796870e+02,-4.114260e+02,-8.046900e+01,1.079100e+02,1.835900e+01,5.273000e+00
1.179690e+02,-4.701170e+02,-1.270000e+00,4.433600e+01,2.519500e+01,-3.046900e+01,1.230500e+01,-1.633790e+02,2.265600e+01,-3.144500e+01,3.007800e+01,-5.561520e+02,-1.687500e+02,-2.692380e+02,-4.135740e+02,-7.578100e+01,1.085940e+02,1.953100e+01,8.789000e+00
1.375000e+02,-4.397460e+02,2.119100e+01,7.656300e+01,4.111300e+01,-4.511700e+01,2.480500e+01,-1.400390e+02,2.031300e+01,-9.766000e+00,4.345700e+01,-5.270510e+02,-1.581050e+02,-2.387700e+02,-3.881840e+02,-4.804700e+01,1.288090e+02,4.296900e+01,2.988300e+01
1.580080e+02,-4.129880e+02,5.136700e+01,1.010740e+02,5.908200e+01,-6.103500e+01,4.238300e+01,-1.202150e+02,2.636700e+01,6.348000e+00,7.832000e+01,-5.103520e+02,-1.573240e+02,-2.227540e+02,-3.627930e+02,-3.164100e+01,1.469730e+02,6.582000e+01,4.863300e+01
1.619140e+02,-4.009770e+02,5.097700e+01,1.122070e+02,6.123000e+01,-6.279300e+01,5.498000e+01,-1.023440e+02,3.916000e+01,2.265600e+01,8.710900e+01,-5.009770e+02,-1.707030e+02,-2.093750e+02,-3.449220e+02,-1.611300e+01,1.493160e+02,7.470700e+01,6.347700e+01
1.776370e+02,-3.740230e+02,6.152300e+01,1.362300e+02,6.669900e+01,-7.002000e+01,6.894500e+01,-7.734400e+01,5.048800e+01,4.726600e+01,8.154300e+01,-4.615230e+02,-1.864260e+02,-1.773440e+02,-3.283200e+02,1.406200e+01,1.622070e+02,9.072300e+01,8.632800e+01
1.794920e+02,-3.748050e+02,6.513700e+01,1.321290e+02,6.328100e+01,-6.943400e+01,6.035200e+01,-7.968800e+01,4.082000e+01,4.326200e+01,8.037100e+01,-4.649410e+02,-1.937500e+02,-1.850590e+02,-3.380860e+02,6.934000e+00,1.593750e+02,8.652300e+01,7.959000e+01
1.564450e+02,-4.042970e+02,4.238300e+01,1.111330e+02,4.628900e+01,-5.234400e+01,4.179700e+01,-1.031250e+02,3.281200e+01,2.207000e+01,5.517600e+01,-4.991210e+02,-1.973630e+02,-2.166990e+02,-3.687500e+02,-1.982400e+01,1.403320e+02,6.357400e+01,5.644500e+01
1.324220e+02,-4.326170e+02,2.578100e+01,9.140600e+01,3.173800e+01,-3.476600e+01,2.031300e+01,-1.231450e+02,2.255900e+01,3.906000e+00,1.982400e+01,-5.318360e+02,-2.041990e+02,-250,-3.983400e+02,-3.974600e+01,1.231450e+02,4.248000e+01,3.535200e+01
1.311520e+02,-4.428710e+02,3.584000e+01,7.822300e+01,3.418000e+01,-3.623000e+01,1.074200e+01,-1.366210e+02,1.601600e+01,-4.297000e+00,9.082000e+00,-5.292970e+02,-1.958980e+02,-2.438480e+02,-4.121090e+02,-5.527300e+01,1.231450e+02,3.642600e+01,2.314500e+01
1.281250e+02,-4.632810e+02,2.607400e+01,4.843800e+01,2.978500e+01,-3.115200e+01,1.074200e+01,-1.504880e+02,2.119100e+01,-1.162100e+01,1.503900e+01,-5.335940e+02,-1.482420e+02,-2.542970e+02,-4.164060e+02,-7.011700e+01,1.156250e+02,2.695300e+01,1.289100e+01
1.314450e+02,-4.562500e+02,-1.172000e+00,5.664100e+01,2.236300e+01,-2.763700e+01,2.138700e+01,-1.496090e+02,3.398400e+01,-1.396500e+01,5.507800e+01,-5.272460e+02,-1.124020e+02,-2.510740e+02,-4.033200e+02,-6.123000e+01,1.188480e+02,2.763700e+01,2.021500e+01
1.516600e+02,-4.260740e+02,2.480500e+01,9.140600e+01,3.789100e+01,-4.316400e+01,3.867200e+01,-1.334960e+02,4.140600e+01,-3.027000e+00,7.490200e+01,-5.145510e+02,-1.157230e+02,-2.380860e+02,-3.802730e+02,-4.267600e+01,1.403320e+02,5.048800e+01,4.150400e+01
1.679690e+02,-4.030270e+02,5.283200e+01,1.129880e+02,5.283200e+01,-5.615200e+01,5.537100e+01,-1.139650e+02,4.794900e+01,1.191400e+01,7.089800e+01,-5.069340e+02,-1.311520e+02,-2.146480e+02,-3.607420e+02,-2.734400e+01,1.548830e+02,7.168000e+01,5.918000e+01
1.810550e+02,-3.834960e+02,6.572300e+01,1.280270e+02,6.093700e+01,-6.337900e+01,6.679700e+01,-9.794900e+01,5.595700e+01,2.646500e+01,9.375000e+01,-4.856450e+02,-1.273440e+02,-1.954100e+02,-3.495120e+02,-4.980000e+00,1.625000e+02,8.271500e+01,7.158200e+01
1.956050e+02,-3.567380e+02,7.480500e+01,1.566410e+02,6.455100e+01,-6.650400e+01,7.441400e+01,-6.875000e+01,5.781300e+01,5.273400e+01,1.061520e+02,-4.609380e+02,-1.367190e+02,-1.769530e+02,-3.339840e+02,3.310500e+01,1.763670e+02,9.726600e+01,9.111300e+01
1.929690e+02,-3.579100e+02,7.128900e+01,1.611330e+02,5.517600e+01,-6.074200e+01,5.810500e+01,-6.972700e+01,3.730500e+01,4.863300e+01,9.589800e+01,-4.847660e+02,-1.462890e+02,-1.883790e+02,-3.326170e+02,2.705100e+01,1.730470e+02,9.140600e+01,8.203100e+01
175,-3.872070e+02,5.546900e+01,1.181640e+02,4.472700e+01,-5.068400e+01,4.013700e+01,-8.974600e+01,3.056600e+01,3.398400e+01,7.080100e+01,-4.806640e+02,-1.527340e+02,-1.950200e+02,-3.523440e+02,4.004000e+00,1.511720e+02,6.953100e+01,6.054700e+01
1.567380e+02,-4.124020e+02,3.896500e+01,9.609400e+01,3.632800e+01,-4.043000e+01,2.910200e+01,-1.098630e+02,2.871100e+01,1.757800e+01,4.912100e+01,-4.857420e+02,-1.435550e+02,-2.016600e+02,-3.666990e+02,-1.455100e+01,1.359380e+02,5.078100e+01,4.326200e+01
1.527340e+02,-4.251950e+02,3.623000e+01,7.998000e+01,3.125000e+01,-3.339800e+01,3.066400e+01,-1.203120e+02,3.652300e+01,9.277000e+00,6.650400e+01,-500,-1.105470e+02,-2.168950e+02,-3.601560e+02,-2.334000e+01,1.340820e+02,4.521500e+01,3.828100e+01
1.404300e+02,-4.492190e+02,2.490200e+01,5.732400e+01,2.675800e+01,-2.988300e+01,2.412100e+01,-1.401370e+02,3.359400e+01,-9.766000e+00,5.293000e+01,-5.271480e+02,-1.072270e+02,-2.453120e+02,-3.749020e+02,-4.433600e+01,1.229490e+02,3.271500e+01,2.138700e+01
1.332030e+02,-4.566410e+02,1.503900e+01,5.214800e+01,2.490200e+01,-3.183600e+01,2.509800e+01,-1.435550e+02,3.984400e+01,-9.375000e+00,3.789100e+01,-5.332030e+02,-1.055660e+02,-2.517580e+02,-3.799800e+02,-4.335900e+01,1.180660e+02,2.871100e+01,2.070300e+01
1.541020e+02,-4.245120e+02,4.160200e+01,8.466800e+01,4.121100e+01,-4.804700e+01,4.296900e+01,-1.218750e+02,4.853500e+01,1.054700e+01,5.449200e+01,-5.059570e+02,-1.073240e+02,-2.259770e+02,-3.666020e+02,-2.021500e+01,1.400390e+02,5.146500e+01,4.394500e+01
1.767580e+02,-3.947270e+02,5.810500e+01,1.106450e+02,5.722700e+01,-6.269500e+01,6.543000e+01,-1.020510e+02,6.005900e+01,3.007800e+01,9.062500e+01,-4.853520e+02,-1.060550e+02,-2.040040e+02,-3.452150e+02,-2.246000e+00,1.584960e+02,7.392600e+01,6.611300e+01
1.888670e+02,-3.789060e+02,7.304700e+01,1.236330e+02,6.269500e+01,-6.533200e+01,7.255900e+01,-9.033200e+01,6.162100e+01,4.023400e+01,9.609400e+01,-4.776370e+02,-1.120120e+02,-1.913090e+02,-3.398440e+02,5.566000e+00,1.654300e+02,8.388700e+01,7.656300e+01
2.016600e+02,-3.509770e+02,8.945300e+01,1.555660e+02,6.679700e+01,-6.953100e+01,7.275400e+01,-7.021500e+01,5.527300e+01,5.908200e+01,9.560500e+01,-4.523440e+02,-1.269530e+02,-1.651370e+02,-3.286130e+02,3.232400e+01,1.791990e+02,9.687500e+01,8.984400e+01
1.991210e+02,-3.462890e+02,8.300800e+01,1.657230e+02,6.416000e+01,-6.787100e+01,7.060500e+01,-6.933600e+01,5.449200e+01,5.898400e+01,9.941400e+01,-4.419920e+02,-1.358400e+02,-1.685550e+02,-3.235350e+02,2.783200e+01,1.774410e+02,9.550800e+01,8.847700e+01
1.759770e+02,-3.798830e+02,6.435500e+01,1.342770e+02,4.824200e+01,-5.341800e+01,5.048800e+01,-9.394500e+01,4.150400e+01,3.505900e+01,8.007800e+01,-4.781250e+02,-1.396480e+02,-1.905270e+02,-3.453120e+02,6.055000e+00,1.556640e+02,7.177700e+01,6.152300e+01
1.543950e+02,-4.124020e+02,4.414100e+01,9.267600e+01,3.710900e+01,-4.209000e+01,3.925800e+01,-1.116210e+02,3.877000e+01,2.294900e+01,6.933600e+01,-4.926760e+02,-1.223630e+02,-2.132810e+02,-3.585940e+02,-3.516000e+00,1.351560e+02,5.078100e+01,4.462900e+01
1.473630e+02,-4.279300e+02,3.183600e+01,7.998000e+01,3.447300e+01,-3.710900e+01,3.398400e+01,-1.271480e+02,3.662100e+01,8.789000e+00,6.113300e+01,-5.106450e+02,-1.002930e+02,-2.301760e+02,-3.631840e+02,-1.865200e+01,1.303710e+02,4.228500e+01,3.398400e+01
1.390620e+02,-4.461910e+02,2.119100e+01,6.543000e+01,2.988300e+01,-3.193400e+01,2.548800e+01,-1.521480e+02,3.046900e+01,-1.171900e+01,5.283200e+01,-5.400390e+02,-8.896500e+01,-2.547850e+02,-3.743160e+02,-4.746100e+01,1.231450e+02,3.134800e+01,1.669900e+01
1.304690e+02,-4.568360e+02,1.826200e+01,5.986300e+01,2.744100e+01,-3.271500e+01,2.617200e+01,-1.668950e+02,3.623000e+01,-2.177700e+01,4.980500e+01,-5.628910e+02,-1.018550e+02,-2.709960e+02,-3.830080e+02,-6.543000e+01,1.185550e+02,2.666000e+01,1.308600e+01
1.474610e+02,-4.283200e+02,3.828100e+01,8.349600e+01,4.228500e+01,-4.843800e+01,4.794900e+01,-1.380860e+02,5.488300e+01,7.129000e+00,5.293000e+01,-5.216800e+02,-1.142580e+02,-2.327150e+02,-3.717770e+02,-3.076200e+01,1.375000e+02,5.058600e+01,3.984400e+01
1.760740e+02,-3.979490e+02,6.923800e+01,1.085940e+02,6.025400e+01,-6.377000e+01,6.171900e+01,-1.143550e+02,5.224600e+01,2.636700e+01,8.515600e+01,-4.946290e+02,-1.118160e+02,-1.997070e+02,-3.529300e+02,-4.883000e+00,1.596680e+02,7.558600e+01,5.742200e+01
1.860350e+02,-3.770510e+02,6.845700e+01,1.273440e+02,6.025400e+01,-6.269500e+01,6.025400e+01,-9.736300e+01,4.306600e+01,3.906200e+01,9.375000e+01,-4.694340e+02,-1.136720e+02,-1.801760e+02,-3.455080e+02,1.435500e+01,1.672850e+02,8.574200e+01,6.728500e+01
1.905270e+02,-3.574220e+02,7.675800e+01,1.497070e+02,6.445300e+01,-6.748000e+01,7.089800e+01,-7.822300e+01,5.283200e+01,5.693400e+01,9.824200e+01,-4.500980e+02,-1.403320e+02,-1.622070e+02,-3.380860e+02,3.252000e+01,1.749020e+02,9.824200e+01,8.535200e+01
1.904300e+02,-3.580080e+02,8.154300e+01,1.500980e+02,6.406300e+01,-6.914100e+01,7.207000e+01,-7.988300e+01,5.332000e+01,5.390600e+01,9.502000e+01,-4.575200e+02,-1.556640e+02,-1.671880e+02,-3.364260e+02,2.841800e+01,1.734370e+02,9.804700e+01,8.330100e+01
1.722660e+02,-3.857420e+02,6.230500e+01,1.252930e+02,4.775400e+01,-5.244100e+01,5.058600e+01,-1.034180e+02,3.789100e+01,2.978500e+01,7.763700e+01,-4.796880e+02,-1.470700e+02,-1.926760e+02,-3.597660e+02,-1.074000e+00,1.549800e+02,7.646500e+01,5.664100e+01
1.531250e+02,-4.095700e+02,3.916000e+01,1.051760e+02,3.271500e+01,-3.476600e+01,2.968800e+01,-1.237300e+02,2.685500e+01,1.123000e+01,5.742200e+01,-4.883790e+02,-1.327150e+02,-2.109380e+02,-3.818360e+02,-2.099600e+01,1.395510e+02,5.712900e+01,3.642600e+01
1.395510e+02,-4.297850e+02,2.314500e+01,9.169900e+01,2.587900e+01,-2.851600e+01,2.148400e+01,-1.394530e+02,2.587900e+01,-3.516000e+00,3.798800e+01,-5.166990e+02,-1.301760e+02,-2.359380e+02,-3.933590e+02,-3.125000e+01,1.320310e+02,4.707000e+01,2.519500e+01
1.327150e+02,-4.507810e+02,1.679700e+01,6.796900e+01,2.480500e+01,-2.832000e+01,1.455100e+01,-1.583980e+02,2.392600e+01,-2.128900e+01,4.277300e+01,-5.434570e+02,-1.193360e+02,-2.538090e+02,-4.118160e+02,-5.214800e+01,1.229490e+02,3.691400e+01,1.074200e+01
1.275390e+02,-4.590820e+02,7.715000e+00,5.361300e+01,2.314500e+01,-2.861300e+01,1.728500e+01,-1.614260e+02,3.388700e+01,-2.011700e+01,3.486300e+01,-5.456050e+02,-1.090820e+02,-2.548830e+02,-4.074220e+02,-5.224600e+01,1.172850e+02,3.359400e+01,1.230500e+01
1.423830e+02,-4.323240e+02,2.812500e+01,7.978500e+01,3.759800e+01,-4.404300e+01,3.613300e+01,-1.389650e+02,4.257800e+01,2.930000e-01,4.736300e+01,-5.079100e+02,-1.105470e+02,-2.337890e+02,-3.826170e+02,-3.125000e+01,1.357420e+02,5.585900e+01,3.652300e+01
1.637700e+02,-4.023440e+02,5.459000e+01,1.083980e+02,5.302700e+01,-5.781300e+01,4.677700e+01,-1.205080e+02,3.701200e+01,1.543000e+01,5.683600e+01,-4.942380e+02,-1.136720e+02,-2.126950e+02,-3.653320e+02,-1.640600e+01,1.548830e+02,7.724600e+01,5.283200e+01
1.683590e+02,-3.943360e+02,7.597700e+01,1.156250e+02,6.337900e+01,-6.621100e+01,4.892600e+01,-1.088870e+02,3.134800e+01,1.669900e+01,3.798800e+01,-4.935550e+02,-1.483400e+02,-2.046880e+02,-3.627930e+02,-1.103500e+01,1.563480e+02,8.603500e+01,5.927700e+01
1.730470e+02,-3.797850e+02,8.769500e+01,1.341800e+02,6.884800e+01,-7.285200e+01,5.351600e+01,-9.033200e+01,3.291000e+01,3.437500e+01,3.095700e+01,-4.791020e+02,-1.845700e+02,-1.882810e+02,-3.631840e+02,7.617000e+00,1.618160e+02,9.658200e+01,7.460900e+01
1.832030e+02,-3.649410e+02,8.300800e+01,1.548830e+02,5.585900e+01,-6.181600e+01,5.468800e+01,-7.451200e+01,3.378900e+01,4.580100e+01,8.115200e+01,-4.826170e+02,-1.561520e+02,-1.935550e+02,-3.523440e+02,1.201200e+01,1.717770e+02,1.013670e+02,8.232400e+01
1.653320e+02,-3.932620e+02,5.585900e+01,1.180660e+02,4.033200e+01,-4.609400e+01,3.750000e+01,-8.837900e+01,2.617200e+01,2.949200e+01,7.646500e+01,-4.931640e+02,-1.412110e+02,-2.109380e+02,-3.705080e+02,-7.031000e+00,1.516600e+02,7.988300e+01,6.357400e+01
1.529300e+02,-4.110350e+02,2.421900e+01,1.030270e+02,2.900400e+01,-3.144500e+01,2.978500e+01,-1.028320e+02,3.457000e+01,2.441400e+01,8.017600e+01,-4.892580e+02,-1.207030e+02,-2.006840e+02,-3.833010e+02,-1.035200e+01,1.405270e+02,6.386700e+01,5.302700e+01
1.393550e+02,-4.296870e+02,1.503900e+01,8.818400e+01,2.529300e+01,-2.734400e+01,2.265600e+01,-1.203120e+02,3.291000e+01,8.496000e+00,5.351600e+01,-5.073240e+02,-1.238280e+02,-2.124020e+02,-3.903320e+02,-2.714800e+01,1.319340e+02,5.273400e+01,4.062500e+01
1.303710e+02,-4.510740e+02,1.132800e+01,6.074200e+01,2.646500e+01,-2.861300e+01,1.806600e+01,-1.397460e+02,2.998000e+01,-1.064500e+01,2.714800e+01,-5.270510e+02,-1.052730e+02,-2.381840e+02,-3.933590e+02,-5.341800e+01,1.226560e+02,4.248000e+01,2.597700e+01
1.219730e+02,-4.645510e+02,9.863000e+00,5.136700e+01,2.119100e+01,-2.470700e+01,1.015600e+01,-1.532230e+02,2.441400e+01,-2.421900e+01,1.435500e+01,-5.495120e+02,-1.146480e+02,-2.645510e+02,-4.120120e+02,-7.099600e+01,1.167970e+02,3.486300e+01,1.728500e+01
1.398440e+02,-4.356450e+02,2.988300e+01,8.154300e+01,3.603500e+01,-4.052700e+01,2.939500e+01,-1.319340e+02,3.535200e+01,-2.637000e+00,4.365200e+01,-5.235350e+02,-1.230470e+02,-2.263670e+02,-3.934570e+02,-4.531200e+01,1.358400e+02,5.615200e+01,4.111300e+01
1.640620e+02,-4.046880e+02,5.283200e+01,1.041020e+02,5.527300e+01,-5.888700e+01,5.312500e+01,-1.068360e+02,4.716800e+01,2.255900e+01,6.640600e+01,-4.907230e+02,-1.167970e+02,-1.894530e+02,-3.667970e+02,-1.513700e+01,1.558590e+02,8.037100e+01,6.494100e+01
1.722660e+02,-3.899410e+02,6.572300e+01,1.167970e+02,6.093700e+01,-6.494100e+01,6.074200e+01,-9.375000e+01,4.843800e+01,3.388700e+01,6.533200e+01,-4.801760e+02,-1.270510e+02,-1.851560e+02,-3.550780e+02,-5.371000e+00,1.608400e+02,8.974600e+01,7.558600e+01
1.797850e+02,-3.708980e+02,7.695300e+01,1.413090e+02,6.396500e+01,-6.748000e+01,6.679700e+01,-7.568400e+01,5.302700e+01,5.078100e+01,8.261700e+01,-4.587890e+02,-1.469730e+02,-1.601560e+02,-3.429690e+02,9.180000e+00,1.678710e+02,1.000980e+02,9.033200e+01
1.867190e+02,-3.582030e+02,8.574200e+01,1.537110e+02,6.494100e+01,-7.138700e+01,6.601600e+01,-7.275400e+01,4.912100e+01,5.253900e+01,8.671900e+01,-4.538090e+02,-1.515630e+02,-1.616210e+02,-3.448240e+02,1.005900e+01,1.732420e+02,1.046870e+02,9.199200e+01
1.675780e+02,-3.889650e+02,5.742200e+01,1.203120e+02,4.990200e+01,-5.644500e+01,5.507800e+01,-9.306600e+01,4.746100e+01,3.447300e+01,8.232400e+01,-4.794920e+02,-1.326170e+02,-1.932620e+02,-3.582030e+02,-8.887000e+00,1.517580e+02,8.242200e+01,7.197300e+01
1.461910e+02,-4.166990e+02,3.447300e+01,9.697300e+01,3.447300e+01,-3.847700e+01,4.003900e+01,-1.123050e+02,4.502000e+01,1.943400e+01,6.210900e+01,-4.984370e+02,-1.240230e+02,-2.123050e+02,-3.718750e+02,-2.490200e+01,1.350590e+02,6.142600e+01,5.400400e+01
1.409180e+02,-4.283200e+02,2.910200e+01,8.886700e+01,2.988300e+01,-3.125000e+01,2.773400e+01,-1.218750e+02,3.789100e+01,7.422000e+00,5.273400e+01,-5.117190e+02,-1.181640e+02,-2.229490e+02,-3.810550e+02,-3.320300e+01,1.315430e+02,5.117200e+01,4.062500e+01
1.378910e+02,-4.431640e+02,2.089800e+01,7.343700e+01,2.714800e+01,-2.959000e+01,1.767600e+01,-1.367190e+02,2.392600e+01,-5.078000e+00,5.224600e+01,-5.343750e+02,-1.084960e+02,-2.459960e+02,-3.838870e+02,-4.902300e+01,1.270510e+02,4.189500e+01,2.529300e+01
1.298830e+02,-4.569340e+02,1.103500e+01,6.357400e+01,1.933600e+01,-2.343800e+01,5.078000e+00,-1.449220e+02,1.279300e+01,-1.210900e+01,4.492200e+01,-5.568360e+02,-1.041020e+02,-2.609370e+02,-4.016600e+02,-5.576200e+01,1.219730e+02,3.310500e+01,1.416000e+01
1.447270e+02,-4.327150e+02,3.398400e+01,8.515600e+01,3.632800e+01,-4.033200e+01,2.636700e+01,-1.215820e+02,3.007800e+01,6.934000e+00,6.308600e+01,-5.273440e+02,-9.951200e+01,-2.259770e+02,-3.854490e+02,-3.007800e+01,1.391600e+02,5.507800e+01,3.916000e+01
1.695310e+02,-4.034180e+02,6.396500e+01,1.040040e+02,5.644500e+01,-5.869100e+01,4.882800e+01,-9.658200e+01,4.541000e+01,2.041000e+01,7.949200e+01,-4.782230e+02,-1.033200e+02,-1.952150e+02,-3.659180e+02,-1.269500e+01,1.581050e+02,7.841800e+01,6.171900e+01
1.799800e+02,-3.865230e+02,7.343700e+01,1.253910e+02,6.152300e+01,-6.250000e+01,5.859400e+01,-8.427700e+01,4.912100e+01,3.427700e+01,8.935500e+01,-4.698240e+02,-1.169920e+02,-1.875980e+02,-3.551760e+02,-2.051000e+00,1.652340e+02,8.886700e+01,7.304700e+01
1.876950e+02,-3.644530e+02,7.978500e+01,1.569340e+02,6.142600e+01,-6.347700e+01,6.464800e+01,-7.226600e+01,5.205100e+01,5.224600e+01,8.662100e+01,-4.549800e+02,-1.357420e+02,-1.729490e+02,-3.437500e+02,2.109400e+01,1.743160e+02,9.736300e+01,8.681600e+01
1.943360e+02,-3.525390e+02,8.906300e+01,1.533200e+02,6.582000e+01,-6.904300e+01,6.972700e+01,-6.171900e+01,5.283200e+01,6.377000e+01,8.652300e+01,-4.407230e+02,-1.425780e+02,-1.587890e+02,-3.275390e+02,3.730500e+01,1.780270e+02,1.041020e+02,9.355500e+01
1.773440e+02,-3.810550e+02,7.002000e+01,1.183590e+02,5.253900e+01,-5.761700e+01,5.195300e+01,-8.085900e+01,4.218800e+01,4.482400e+01,7.900400e+01,-4.773440e+02,-1.294920e+02,-1.857420e+02,-3.480470e+02,1.894500e+01,1.577150e+02,8.252000e+01,7.021500e+01
1.558590e+02,-4.075200e+02,4.531200e+01,1.045900e+02,3.759800e+01,-4.130900e+01,3.662100e+01,-1.017580e+02,3.896500e+01,2.441400e+01,6.240200e+01,-5.090820e+02,-1.167970e+02,-2.100590e+02,-3.676760e+02,-5.566000e+00,1.412110e+02,6.142600e+01,5.087900e+01
1.427730e+02,-4.269530e+02,2.675800e+01,9.394500e+01,3.232400e+01,-3.457000e+01,3.134800e+01,-1.196290e+02,4.140600e+01,1.025400e+01,3.232400e+01,-5.136720e+02,-1.246090e+02,-2.220700e+02,-3.705080e+02,-2.548800e+01,1.326170e+02,4.882800e+01,3.955100e+01
1.406250e+02,-4.432620e+02,2.441400e+01,6.503900e+01,2.968800e+01,-3.300800e+01,3.300800e+01,-1.348630e+02,4.472700e+01,5.860000e-01,6.250000e+01,-5.201170e+02,-9.384800e+01,-2.378910e+02,-3.668950e+02,-4.121100e+01,1.288090e+02,4.257800e+01,3.056600e+01
1.369140e+02,-4.518550e+02,1.377000e+01,5.703100e+01,2.031300e+01,-2.627000e+01,2.070300e+01,-1.449220e+02,3.613300e+01,-8.398000e+00,5.322300e+01,-5.319340e+02,-9.101600e+01,-2.474610e+02,-3.882810e+02,-4.921900e+01,1.240230e+02,3.300800e+01,2.050800e+01
1.506840e+02,-4.270510e+02,3.984400e+01,8.769500e+01,3.486300e+01,-4.169900e+01,3.144500e+01,-1.275390e+02,3.837900e+01,5.957000e+00,5.869100e+01,-5.048830e+02,-1.035160e+02,-2.283200e+02,-3.785160e+02,-2.675800e+01,1.419920e+02,5.253900e+01,3.779300e+01
1.665040e+02,-4.043950e+02,7.548800e+01,1.168950e+02,5.468800e+01,-5.761700e+01,4.687500e+01,-1.119140e+02,4.209000e+01,1.972700e+01,5.986300e+01,-5.224610e+02,-1.152340e+02,-2.179690e+02,-3.631840e+02,-7.227000e+00,1.595700e+02,7.578100e+01,5.566400e+01
1.886720e+02,-3.765630e+02,6.953100e+01,1.254880e+02,6.201200e+01,-6.377000e+01,6.533200e+01,-8.847700e+01,5.390600e+01,4.287100e+01,8.964800e+01,-4.781250e+02,-8.984400e+01,-1.892580e+02,-3.393550e+02,1.787100e+01,1.696290e+02,9.043000e+01,7.627000e+01
1.983400e+02,-3.578130e+02,8.378900e+01,1.417970e+02,6.494100e+01,-6.640600e+01,6.816400e+01,-7.236300e+01,5.029300e+01,5.595700e+01,9.384800e+01,-4.456050e+02,-1.208980e+02,-1.629880e+02,-3.395510e+02,3.476600e+01,1.761720e+02,1.000980e+02,8.769500e+01
2.023440e+02,-3.442380e+02,8.222700e+01,1.581050e+02,6.464800e+01,-6.923800e+01,7.470700e+01,-5.996100e+01,5.351600e+01,6.425800e+01,1.183590e+02,-4.304690e+02,-1.320310e+02,-1.503910e+02,-3.241210e+02,4.462900e+01,1.819340e+02,1.074220e+02,9.668000e+01
1.788090e+02,-3.759770e+02,6.064500e+01,1.303710e+02,4.990200e+01,-5.546900e+01,6.005900e+01,-8.212900e+01,4.863300e+01,4.384800e+01,9.814500e+01,-4.666990e+02,-1.343750e+02,-1.819340e+02,-3.424800e+02,1.865200e+01,1.612300e+02,8.603500e+01,7.451200e+01
1.559570e+02,-4.067380e+02,4.375000e+01,1.058590e+02,3.623000e+01,-3.916000e+01,4.326200e+01,-1.032230e+02,4.199200e+01,2.568400e+01,6.416000e+01,-4.882810e+02,-1.333010e+02,-2.050780e+02,-3.708980e+02,-3.910000e-01,1.431640e+02,6.552700e+01,5.380900e+01
1.410160e+02,-4.290040e+02,3.330100e+01,8.789100e+01,3.066400e+01,-3.222700e+01,3.193400e+01,-1.212890e+02,3.535200e+01,1.162100e+01,4.824200e+01,-5.013670e+02,-1.185550e+02,-2.240230e+02,-3.831050e+02,-1.757800e+01,1.317380e+02,5.273400e+01,3.896500e+01
1.327150e+02,-4.490230e+02,3.544900e+01,7.070300e+01,2.939500e+01,-3.203100e+01,2.597700e+01,-1.457030e+02,3.173800e+01,-1.132800e+01,4.209000e+01,-5.360350e+02,-1.108400e+02,-2.534180e+02,-3.930660e+02,-4.414100e+01,1.252930e+02,4.423800e+01,2.236300e+01
1.235350e+02,-4.639650e+02,9.082000e+00,5.429700e+01,2.226600e+01,-2.832000e+01,2.353500e+01,-1.590820e+02,3.339800e+01,-2.304700e+01,3.242200e+01,-5.527340e+02,-1.049800e+02,-2.578120e+02,-4.007810e+02,-5.273400e+01,1.155270e+02,3.359400e+01,1.259800e+01
1.432620e+02,-4.350590e+02,2.744100e+01,7.734400e+01,3.906200e+01,-4.502000e+01,4.726600e+01,-1.349610e+02,5.068400e+01,-1.855000e+00,4.462900e+01,-5.128910e+02,-1.109380e+02,-2.213870e+02,-3.801760e+02,-2.578100e+01,1.341800e+02,5.625000e+01,3.837900e+01
1.526370e+02,-4.142580e+02,4.345700e+01,1.041990e+02,5.810500e+01,-6.064500e+01,5.957000e+01,-1.179690e+02,5.019500e+01,8.984000e+00,2.304700e+01,-4.978520e+02,-1.391600e+02,-2.016600e+02,-3.573240e+02,-1.210900e+01,1.462890e+02,7.646500e+01,5.351600e+01
1.671880e+02,-3.958980e+02,6.240200e+01,1.228520e+02,6.543000e+01,-6.777300e+01,6.377000e+01,-1.075200e+02,4.345700e+01,1.982400e+01,4.980500e+01,-4.971680e+02,-1.238280e+02,-2.018550e+02,-3.435550e+02,-5.860000e-01,1.581050e+02,9.072300e+01,6.240200e+01
1.883790e+02,-3.679690e+02,7.871100e+01,1.448240e+02,6.181600e+01,-6.279300e+01,6.474600e+01,-8.505900e+01,3.798800e+01,4.375000e+01,1.043950e+02,-4.629880e+02,-1.189450e+02,-1.714840e+02,-3.432620e+02,2.822300e+01,1.745120e+02,1.041020e+02,7.841800e+01
1.960940e+02,-3.517580e+02,8.378900e+01,1.532230e+02,6.650400e+01,-6.943400e+01,7.197300e+01,-7.568400e+01,4.179700e+01,5.214800e+01,1.203120e+02,-4.361330e+02,-1.291020e+02,-1.530270e+02,-3.383790e+02,3.701200e+01,1.790040e+02,1.125980e+02,8.720700e+01
1.718750e+02,-3.815430e+02,6.025400e+01,1.265630e+02,5.058600e+01,-5.576200e+01,5.576200e+01,-9.834000e+01,3.408200e+01,2.451200e+01,9.062500e+01,-4.610350e+02,-1.208010e+02,-1.862300e+02,-3.570310e+02,2.539000e+00,1.573240e+02,8.964800e+01,6.289100e+01
1.497070e+02,-4.139650e+02,4.043000e+01,1.107420e+02,2.998000e+01,-3.339800e+01,3.007800e+01,-1.246090e+02,2.080100e+01,-1.270000e+00,4.492200e+01,-5.054690e+02,-1.403320e+02,-2.255860e+02,-3.915040e+02,-3.056600e+01,1.401370e+02,6.679700e+01,3.916000e+01
1.416990e+02,-4.322270e+02,2.753900e+01,9.121100e+01,2.539100e+01,-2.695300e+01,2.353500e+01,-1.374020e+02,2.275400e+01,-1.123000e+01,5.371100e+01,-5.193360e+02,-1.331050e+02,-2.260740e+02,-4.010740e+02,-3.603500e+01,1.311520e+02,5.498000e+01,2.968800e+01
1.321290e+02,-4.509770e+02,2.119100e+01,6.543000e+01,3.085900e+01,-3.310500e+01,2.880900e+01,-1.447270e+02,3.291000e+01,-1.699200e+01,5.117200e+01,-5.455080e+02,-1.104490e+02,-2.416020e+02,-3.926760e+02,-4.101600e+01,1.243160e+02,4.970700e+01,2.529300e+01
1.147460e+02,-4.721680e+02,2.441000e+00,5.019500e+01,1.826200e+01,-2.353500e+01,2.011700e+01,-1.541990e+02,3.418000e+01,-2.685500e+01,2.978500e+01,-5.614260e+02,-1.140630e+02,-2.675780e+02,-4.130860e+02,-5.498000e+01,1.115230e+02,3.720700e+01,1.660200e+01
1.353520e+02,-4.426760e+02,2.421900e+01,7.148400e+01,3.398400e+01,-4.033200e+01,3.720700e+01,-1.350590e+02,4.335900e+01,-7.422000e+00,4.687500e+01,-5.063480e+02,-1.095700e+02,-2.221680e+02,-3.956050e+02,-3.076200e+01,1.306640e+02,5.761700e+01,3.896500e+01
1.585940e+02,-4.123050e+02,5.185500e+01,1.001950e+02,5.253900e+01,-5.644500e+01,5.361300e+01,-1.164060e+02,4.765600e+01,9.473000e+00,6.494100e+01,-4.924800e+02,-1.204100e+02,-2.006840e+02,-3.750980e+02,-1.279300e+01,1.509770e+02,8.105500e+01,5.898400e+01
1.651370e+02,-3.981450e+02,6.191400e+01,1.111330e+02,6.289100e+01,-6.562500e+01,5.937500e+01,-1.087890e+02,4.404300e+01,1.748000e+01,5.996100e+01,-4.871090e+02,-1.374020e+02,-1.952150e+02,-3.581050e+02,-2.246000e+00,1.558590e+02,9.218800e+01,6.953100e+01
1.764650e+02,-3.773440e+02,7.226600e+01,1.341800e+02,5.918000e+01,-6.044900e+01,5.771500e+01,-8.681600e+01,3.906200e+01,3.134800e+01,8.720700e+01,-4.589840e+02,-1.396480e+02,-1.728520e+02,-3.468750e+02,1.582000e+01,1.670900e+02,1.030270e+02,8.320300e+01
1.908200e+02,-3.584960e+02,8.867200e+01,1.505860e+02,6.123000e+01,-6.435500e+01,5.986300e+01,-6.347700e+01,4.091800e+01,4.892600e+01,9.277300e+01,-4.347660e+02,-1.496090e+02,-1.573240e+02,-3.383790e+02,3.095700e+01,1.781250e+02,1.140630e+02,9.502000e+01
1.725590e+02,-3.856450e+02,7.285200e+01,1.229490e+02,4.960900e+01,-5.341800e+01,4.482400e+01,-8.271500e+01,3.662100e+01,3.066400e+01,7.021500e+01,-4.709960e+02,-1.474610e+02,-1.909180e+02,-3.592770e+02,4.199000e+00,1.580080e+02,9.365200e+01,7.402300e+01
1.550780e+02,-4.092770e+02,4.755900e+01,1.038090e+02,3.193400e+01,-3.515600e+01,2.783200e+01,-1.020510e+02,3.349600e+01,1.171900e+01,5.390600e+01,-4.916990e+02,-1.414060e+02,-2.093750e+02,-3.960940e+02,-1.230500e+01,1.418950e+02,7.158200e+01,5.478500e+01
1.332030e+02,-4.335940e+02,2.226600e+01,8.388700e+01,2.441400e+01,-2.675800e+01,2.412100e+01,-1.153320e+02,3.759800e+01,-1.953000e+00,3.271500e+01,-5.120120e+02,-1.217770e+02,-2.229490e+02,-4.033200e+02,-2.490200e+01,1.274410e+02,5.585900e+01,4.316400e+01
1.286130e+02,-4.509770e+02,2.109400e+01,6.679700e+01,2.646500e+01,-2.773400e+01,2.128900e+01,-1.299800e+02,3.466800e+01,-1.543000e+01,4.218800e+01,-5.289060e+02,-1.151370e+02,-2.375000e+02,-4.033200e+02,-4.394500e+01,1.230470e+02,4.921900e+01,3.173800e+01
1.231450e+02,-4.668950e+02,1.787100e+01,4.960900e+01,1.796900e+01,-2.226600e+01,-2.344000e+00,-1.497070e+02,1.064500e+01,-3.076200e+01,3.339800e+01,-5.382810e+02,-1.172850e+02,-2.502930e+02,-4.224610e+02,-6.328100e+01,1.150390e+02,3.544900e+01,1.123000e+01
1.342770e+02,-4.463870e+02,3.945300e+01,6.748000e+01,3.125000e+01,-3.789100e+01,1.279300e+01,-1.316410e+02,2.099600e+01,-9.863000e+00,3.974600e+01,-5.222660e+02,-1.159180e+02,-2.335940e+02,-4.025390e+02,-3.642600e+01,1.282230e+02,5.234400e+01,3.105500e+01
1.586910e+02,-4.156250e+02,6.923800e+01,9.423800e+01,5.146500e+01,-5.644500e+01,3.759800e+01,-1.102540e+02,3.779300e+01,9.766000e+00,6.328100e+01,-5.002930e+02,-1.131840e+02,-2.121090e+02,-3.736330e+02,-1.416000e+01,1.473630e+02,7.646500e+01,5.478500e+01
1.822270e+02,-3.858400e+02,6.552700e+01,1.199220e+02,5.654300e+01,-5.898400e+01,5.527300e+01,-8.554700e+01,4.882800e+01,3.154300e+01,9.951200e+01,-4.821290e+02,-1.097660e+02,-1.899410e+02,-3.472660e+02,1.162100e+01,1.644530e+02,9.355500e+01,7.539100e+01
1.822270e+02,-3.699220e+02,7.246100e+01,1.402340e+02,5.644500e+01,-5.791000e+01,5.546900e+01,-7.304700e+01,4.472700e+01,4.189500e+01,9.326200e+01,-4.700200e+02,-1.297850e+02,-1.854490e+02,-3.499020e+02,2.363300e+01,1.682620e+02,9.931600e+01,8.408200e+01
1.879880e+02,-3.563480e+02,9.199200e+01,1.509770e+02,6.259800e+01,-6.699200e+01,6.279300e+01,-5.966800e+01,4.775400e+01,5.029300e+01,7.978500e+01,-4.554690e+02,-1.480470e+02,-1.697270e+02,-3.416020e+02,3.271500e+01,1.746090e+02,1.083980e+02,9.335900e+01
1.779300e+02,-3.747070e+02,7.314500e+01,1.295900e+02,5.019500e+01,-5.585900e+01,4.785200e+01,-7.353500e+01,3.789100e+01,3.544900e+01,9.160200e+01,-4.679690e+02,-1.350590e+02,-1.768550e+02,-3.486330e+02,1.650400e+01,1.600590e+02,9.033200e+01,7.382800e+01
1.647460e+02,-3.949220e+02,5.058600e+01,1.123050e+02,3.300800e+01,-3.701200e+01,2.597700e+01,-9.941400e+01,2.558600e+01,1.699200e+01,8.584000e+01,-4.807620e+02,-1.285160e+02,-1.953130e+02,-3.691410e+02,-2.344000e+00,1.464840e+02,6.855500e+01,5.127000e+01
1.498050e+02,-4.166990e+02,3.857400e+01,9.570300e+01,2.705100e+01,-2.861300e+01,1.972700e+01,-1.216800e+02,2.871100e+01,2.246000e+00,7.490200e+01,-5.016600e+02,-1.162110e+02,-2.176760e+02,-3.807620e+02,-2.392600e+01,1.361330e+02,5.449200e+01,3.867200e+01
1.446290e+02,-4.336910e+02,3.203100e+01,8.076200e+01,2.783200e+01,-2.900400e+01,2.197300e+01,-1.348630e+02,3.544900e+01,-6.641000e+00,5.664100e+01,-5.214840e+02,-1.064450e+02,-2.369140e+02,-3.823240e+02,-4.023400e+01,1.310550e+02,4.843800e+01,3.066400e+01
1.263670e+02,-4.609380e+02,2.099600e+01,5.361300e+01,2.177700e+01,-2.597700e+01,1.396500e+01,-1.547850e+02,3.310500e+01,-2.666000e+01,4.609400e+01,-5.575200e+02,-9.316400e+01,-2.662110e+02,-3.950200e+02,-6.474600e+01,1.141600e+02,3.291000e+01,1.445300e+01
1.363280e+02,-4.417970e+02,3.173800e+01,7.158200e+01,3.349600e+01,-3.994100e+01,3.154300e+01,-1.320310e+02,4.433600e+01,-6.250000e+00,7.236300e+01,-5.333010e+02,-8.710900e+01,-2.451170e+02,-3.777340e+02,-3.710900e+01,1.268550e+02,5.009800e+01,3.505900e+01
1.584960e+02,-4.145510e+02,5.322300e+01,8.554700e+01,5.127000e+01,-5.507800e+01,5.761700e+01,-1.033200e+02,5.947300e+01,2.304700e+01,8.769500e+01,-4.903320e+02,-9.130900e+01,-2.085940e+02,-3.444340e+02,-4.395000e+00,1.446290e+02,7.470700e+01,6.250000e+01
1.760740e+02,-3.916020e+02,7.558600e+01,1.078120e+02,6.162100e+01,-6.367200e+01,6.845700e+01,-9.179700e+01,6.074200e+01,3.408200e+01,8.857400e+01,-4.750980e+02,-9.970700e+01,-1.923830e+02,-3.306640e+02,7.031000e+00,1.567380e+02,8.955100e+01,7.548800e+01
1.833980e+02,-3.687500e+02,7.773400e+01,1.398440e+02,5.771500e+01,-5.996100e+01,6.533200e+01,-7.509800e+01,5.595700e+01,4.785200e+01,9.541000e+01,-4.564450e+02,-1.284180e+02,-1.734370e+02,-3.439450e+02,2.441400e+01,1.642580e+02,9.560500e+01,8.515600e+01
1.960940e+02,-350,1.032230e+02,1.578120e+02,6.533200e+01,-6.953100e+01,6.572300e+01,-6.093700e+01,4.990200e+01,5.976600e+01,1.052730e+02,-4.447270e+02,-1.348630e+02,-1.601560e+02,-3.409180e+02,3.837900e+01,1.760740e+02,1.077150e+02,9.443400e+01
1.836910e+02,-3.741210e+02,7.636700e+01,1.252930e+02,4.960900e+01,-5.625000e+01,4.531200e+01,-7.656300e+01,3.457000e+01,4.169900e+01,9.863300e+01,-4.622070e+02,-1.260740e+02,-1.950200e+02,-3.578130e+02,1.699200e+01,1.597660e+02,8.857400e+01,7.275400e+01
1.622070e+02,-4.036130e+02,4.082000e+01,1.040040e+02,2.890600e+01,-3.232400e+01,2.900400e+01,-9.794900e+01,3.164100e+01,2.031300e+01,7.441400e+01,-4.957030e+02,-1.283200e+02,-2.224610e+02,-3.797850e+02,-7.520000e+00,1.413090e+02,6.552700e+01,5.253900e+01
1.501950e+02,-4.209960e+02,3.212900e+01,9.589800e+01,2.334000e+01,-2.627000e+01,2.480500e+01,-1.134770e+02,3.701200e+01,9.082000e+00,5.800800e+01,-5.128910e+02,-1.204100e+02,-2.144530e+02,-3.849610e+02,-1.806600e+01,1.352540e+02,5.341800e+01,4.140600e+01
1.513670e+02,-4.303710e+02,3.310500e+01,8.066400e+01,2.851600e+01,-3.173800e+01,2.578100e+01,-1.254880e+02,3.818400e+01,1.660000e+00,6.484400e+01,-5.109370e+02,-1.031250e+02,-2.128910e+02,-3.798830e+02,-3.320300e+01,1.358400e+02,5.048800e+01,3.281200e+01
1.397460e+02,-4.509770e+02,2.285200e+01,5.752000e+01,2.226600e+01,-2.812500e+01,1.455100e+01,-1.446290e+02,3.232400e+01,-1.113300e+01,5.410200e+01,-5.250980e+02,-9.384800e+01,-2.366210e+02,-3.975590e+02,-4.921900e+01,1.242190e+02,3.652300e+01,1.699200e+01
1.469730e+02,-4.346680e+02,3.359400e+01,7.470700e+01,3.300800e+01,-3.945300e+01,2.812500e+01,-1.334960e+02,3.974600e+01,1.367000e+00,5.019500e+01,-5.083010e+02,-1.107420e+02,-2.236330e+02,-3.823240e+02,-2.959000e+01,1.353520e+02,5.117200e+01,3.378900e+01
1.652340e+02,-4.069340e+02,5.419900e+01,9.580100e+01,5.224600e+01,-5.673800e+01,4.746100e+01,-1.197270e+02,4.668000e+01,1.640600e+01,4.970700e+01,-4.934570e+02,-1.169920e+02,-2.102540e+02,-3.565430e+02,-1.191400e+01,1.525390e+02,7.324200e+01,5.273400e+01
1.853520e+02,-3.799800e+02,7.441400e+01,1.193360e+02,5.820300e+01,-6.132800e+01,6.103500e+01,-9.638700e+01,5.195300e+01,3.564500e+01,7.265600e+01,-4.793950e+02,-9.160200e+01,-1.884770e+02,-3.382810e+02,8.008000e+00,1.691410e+02,9.238300e+01,6.982400e+01
1.947270e+02,-3.612300e+02,8.388700e+01,1.403320e+02,5.732400e+01,-5.976600e+01,6.347700e+01,-7.900400e+01,5.127000e+01,4.794900e+01,9.101600e+01,-4.616210e+02,-1.123050e+02,-1.731450e+02,-3.405270e+02,2.216800e+01,1.769530e+02,1.006840e+02,7.949200e+01
2.073240e+02,-3.402340e+02,9.570300e+01,1.645510e+02,6.396500e+01,-6.787100e+01,6.933600e+01,-6.494100e+01,5.234400e+01,5.976600e+01,1.044920e+02,-4.352540e+02,-1.333980e+02,-1.621090e+02,-3.356450e+02,3.574200e+01,1.889650e+02,1.136720e+02,9.101600e+01
1.835940e+02,-3.708980e+02,7.421900e+01,1.509770e+02,4.658200e+01,-5.293000e+01,4.755900e+01,-9.160200e+01,3.408200e+01,3.408200e+01,8.886700e+01,-4.938480e+02,-1.469730e+02,-2.039060e+02,-3.594730e+02,3.809000e+00,1.696290e+02,9.248000e+01,6.416000e+01
1.639650e+02,-4.015620e+02,5.664100e+01,1.024410e+02,3.418000e+01,-3.886700e+01,3.349600e+01,-1.106450e+02,2.841800e+01,1.562500e+01,7.480500e+01,-4.981450e+02,-1.382810e+02,-2.166020e+02,-3.764650e+02,-1.298800e+01,1.479490e+02,7.119100e+01,4.384800e+01
1.507810e+02,-4.186520e+02,4.394500e+01,8.193400e+01,2.900400e+01,-3.252000e+01,2.080100e+01,-1.277340e+02,2.431600e+01,3.125000e+00,5.468800e+01,-4.814450e+02,-1.291990e+02,-2.017580e+02,-3.924800e+02,-2.070300e+01,1.375000e+02,5.703100e+01,2.880900e+01
1.362300e+02,-4.422850e+02,2.919900e+01,6.328100e+01,3.515600e+01,-3.759800e+01,1.806600e+01,-1.477540e+02,2.548800e+01,-1.318400e+01,1.142600e+01,-5.106450e+02,-1.403320e+02,-2.255860e+02,-4.035160e+02,-4.179700e+01,1.269530e+02,4.902300e+01,1.552700e+01
1.262700e+02,-4.627930e+02,2.070300e+01,4.746100e+01,2.216800e+01,-2.734400e+01,8.398000e+00,-1.666990e+02,2.128900e+01,-3.046900e+01,2.509800e+01,-5.449220e+02,-1.070310e+02,-2.544920e+02,-4.159180e+02,-6.533200e+01,1.181640e+02,3.593800e+01,-1.950000e-01
1.426760e+02,-4.361330e+02,3.271500e+01,7.421900e+01,2.714800e+01,-3.457000e+01,2.294900e+01,-1.465820e+02,3.164100e+01,-8.984000e+00,6.748000e+01,-5.175780e+02,-1.009770e+02,-2.383790e+02,-3.944340e+02,-3.720700e+01,1.375980e+02,5.468800e+01,2.255900e+01
1.628910e+02,-4.067380e+02,5.263700e+01,9.941400e+01,4.502000e+01,-5.048800e+01,4.560500e+01,-1.274410e+02,4.375000e+01,8.691000e+00,8.408200e+01,-4.882810e+02,-1.090820e+02,-2.106450e+02,-3.686520e+02,-2.031300e+01,1.562500e+02,7.851600e+01,4.648400e+01
1.773440e+02,-3.875000e+02,8.007800e+01,1.157230e+02,6.054700e+01,-6.416000e+01,6.171900e+01,-1.154300e+02,5.078100e+01,1.601600e+01,9.033200e+01,-4.785160e+02,-1.167970e+02,-1.987300e+02,-3.510740e+02,-1.503900e+01,1.680660e+02,9.599600e+01,6.025400e+01
1.809570e+02,-3.738280e+02,1.019530e+02,1.295900e+02,6.328100e+01,-6.591800e+01,5.703100e+01,-1.063480e+02,3.867200e+01,2.558600e+01,6.767600e+01,-4.707030e+02,-1.394530e+02,-1.916990e+02,-3.538090e+02,1.855000e+00,1.728520e+02,1.025390e+02,6.601600e+01
2.027340e+02,-3.416020e+02,9.902300e+01,1.619140e+02,6.591800e+01,-6.816400e+01,6.386700e+01,-8.398400e+01,4.033200e+01,4.726600e+01,1.011720e+02,-4.392580e+02,-1.370120e+02,-1.605470e+02,-3.405270e+02,3.027300e+01,1.911130e+02,1.186520e+02,8.466800e+01
1.852540e+02,-3.678710e+02,75,1.362300e+02,5.361300e+01,-5.791000e+01,5.712900e+01,-1.008790e+02,4.502000e+01,2.822300e+01,8.701200e+01,-4.641600e+02,-1.353520e+02,-1.840820e+02,-3.578130e+02,2.051000e+00,1.720700e+02,1.011720e+02,6.835900e+01
1.584960e+02,-4.027340e+02,5.966800e+01,1.073240e+02,4.101600e+01,-4.472700e+01,3.877000e+01,-1.299800e+02,3.603500e+01,3.809000e+00,5.986300e+01,-4.972660e+02,-1.328130e+02,-2.204100e+02,-3.867190e+02,-2.509800e+01,1.507810e+02,7.753900e+01,4.433600e+01
1.477540e+02,-4.190430e+02,3.798800e+01,9.658200e+01,2.451200e+01,-2.685500e+01,9.766000e+00,-1.422850e+02,7.422000e+00,-4.492000e+00,5.752000e+01,-5.193360e+02,-1.202150e+02,-2.455080e+02,-4.115230e+02,-3.408200e+01,1.427730e+02,6.054700e+01,2.509800e+01
1.464840e+02,-4.304690e+02,3.994100e+01,8.593700e+01,2.392600e+01,-2.578100e+01,-8.790000e-01,-1.505860e+02,-1.562000e+00,-1.396500e+01,3.632800e+01,-5.207030e+02,-1.189450e+02,-2.453120e+02,-4.230470e+02,-4.521500e+01,1.428710e+02,5.595700e+01,1.406200e+01
1.305660e+02,-4.550780e+02,1.591800e+01,6.328100e+01,1.699200e+01,-2.128900e+01,-3.906000e+00,-1.622070e+02,3.320000e+00,-2.744100e+01,3.740200e+01,-5.422850e+02,-1.080080e+02,-2.555660e+02,-4.225590e+02,-5.478500e+01,1.278320e+02,4.189500e+01,3.320000e+00
1.374020e+02,-4.403320e+02,2.919900e+01,7.138700e+01,2.861300e+01,-3.447300e+01,1.289100e+01,-1.445310e+02,1.777300e+01,-1.103500e+01,5.673800e+01,-5.222660e+02,-9.912100e+01,-2.375000e+02,-4.111330e+02,-3.408200e+01,1.366210e+02,5.546900e+01,2.314500e+01
1.624020e+02,-4.083010e+02,5.127000e+01,1.013670e+02,4.248000e+01,-4.736300e+01,3.554700e+01,-1.220700e+02,3.095700e+01,8.301000e+00,7.773400e+01,-5.029300e+02,-1.062500e+02,-2.079100e+02,-3.822270e+02,-1.455100e+01,1.579100e+02,7.900400e+01,4.824200e+01
1.819340e+02,-3.834960e+02,7.714800e+01,1.195310e+02,5.654300e+01,-5.849600e+01,4.902300e+01,-1.024410e+02,3.339800e+01,2.431600e+01,8.994100e+01,-4.899410e+02,-1.147460e+02,-1.961910e+02,-3.618160e+02,1.465000e+00,1.747070e+02,9.882800e+01,6.523400e+01
1.863280e+02,-3.677730e+02,8.945300e+01,1.401370e+02,5.781300e+01,-5.918000e+01,4.843800e+01,-8.779300e+01,3.125000e+01,3.691400e+01,7.460900e+01,-4.725590e+02,-1.300780e+02,-1.805660e+02,-3.686520e+02,1.503900e+01,1.798830e+02,1.048830e+02,7.490200e+01
1.992190e+02,-3.460940e+02,1.031250e+02,1.602540e+02,6.962900e+01,-7.207000e+01,6.621100e+01,-6.337900e+01,4.502000e+01,6.005900e+01,9.511700e+01,-4.373050e+02,-1.320310e+02,-1.494140e+02,-3.482420e+02,3.886700e+01,1.915040e+02,1.206050e+02,9.697300e+01
1.799800e+02,-3.723630e+02,8.300800e+01,1.391600e+02,5.849600e+01,-6.425800e+01,5.185500e+01,-8.457000e+01,3.584000e+01,3.789100e+01,6.406300e+01,-4.682620e+02,-1.569340e+02,-1.791990e+02,-3.654300e+02,4.297000e+00,1.718750e+02,1.018550e+02,75
1.629880e+02,-3.991210e+02,5.966800e+01,1.044920e+02,4.101600e+01,-4.599600e+01,3.925800e+01,-1.039060e+02,3.652300e+01,2.089800e+01,6.689500e+01,-4.779300e+02,-1.383790e+02,-1.976560e+02,-3.780270e+02,-2.070300e+01,1.544920e+02,8.134800e+01,5.742200e+01
1.501950e+02,-4.185550e+02,4.589800e+01,8.759800e+01,2.607400e+01,-2.744100e+01,2.841800e+01,-1.166020e+02,3.769500e+01,9.082000e+00,6.474600e+01,-4.932620e+02,-1.172850e+02,-2.205080e+02,-3.896480e+02,-2.959000e+01,1.453130e+02,6.572300e+01,4.599600e+01
1.452150e+02,-4.359370e+02,4.043000e+01,7.431600e+01,2.636700e+01,-2.763700e+01,2.285200e+01,-1.291990e+02,3.447300e+01,-3.320000e+00,5.498000e+01,-5.324220e+02,-1.110350e+02,-2.504880e+02,-4.013670e+02,-4.218800e+01,1.418950e+02,5.888700e+01,3.466800e+01
1.320310e+02,-4.538090e+02,1.650400e+01,5.683600e+01,1.894500e+01,-2.294900e+01,1.445300e+01,-1.423830e+02,3.066400e+01,-1.191400e+01,4.365200e+01,-5.427730e+02,-1.055660e+02,-2.484380e+02,-4.137700e+02,-5.263700e+01,1.305660e+02,4.472700e+01,2.089800e+01
1.452150e+02,-4.332030e+02,3.447300e+01,7.666000e+01,3.037100e+01,-3.613300e+01,2.314500e+01,-1.375980e+02,3.398400e+01,-4.297000e+00,5.927700e+01,-5.271480e+02,-1.057620e+02,-2.336910e+02,-4.031250e+02,-4.189500e+01,1.441410e+02,5.800800e+01,3.398400e+01
1.670900e+02,-4.022460e+02,5.791000e+01,1.030270e+02,4.531200e+01,-4.980500e+01,3.740200e+01,-1.183590e+02,3.671900e+01,9.766000e+00,7.587900e+01,-5.005860e+02,-1.061520e+02,-2.193360e+02,-3.767580e+02,-2.314500e+01,1.643550e+02,8.017600e+01,5.449200e+01
1.875980e+02,-3.799800e+02,7.734400e+01,1.219730e+02,5.615200e+01,-5.810500e+01,4.960900e+01,-1.002930e+02,3.896500e+01,2.529300e+01,9.033200e+01,-4.767580e+02,-1.108400e+02,-2.195310e+02,-3.581050e+02,-1.259800e+01,1.792970e+02,9.775400e+01,6.992200e+01
1.908200e+02,-3.674800e+02,8.544900e+01,1.411130e+02,5.673800e+01,-5.849600e+01,5.293000e+01,-8.222700e+01,3.945300e+01,3.671900e+01,8.603500e+01,-4.760740e+02,-1.114260e+02,-1.912110e+02,-3.556640e+02,3.320000e+00,1.832030e+02,1.037110e+02,7.939500e+01
2.120120e+02,-3.346680e+02,1.102540e+02,1.642580e+02,7.207000e+01,-7.421900e+01,7.060500e+01,-5.058600e+01,5.419900e+01,6.591800e+01,1.170900e+02,-4.367190e+02,-1.343750e+02,-1.453130e+02,-3.436520e+02,4.189500e+01,2.003910e+02,1.231450e+02,1.042970e+02
1.964840e+02,-3.565430e+02,9.619100e+01,1.425780e+02,5.966800e+01,-6.318400e+01,5.888700e+01,-6.347700e+01,4.970700e+01,5.253900e+01,9.755900e+01,-4.485350e+02,-1.444340e+02,-1.645510e+02,-3.583980e+02,2.314500e+01,1.838870e+02,1.073240e+02,8.877000e+01
1.687500e+02,-3.951170e+02,7.617200e+01,1.086910e+02,4.287100e+01,-4.775400e+01,4.316400e+01,-8.691400e+01,4.550800e+01,3.105500e+01,6.669900e+01,-4.793950e+02,-1.333010e+02,-1.955080e+02,-3.746090e+02,-5.860000e-01,1.594730e+02,8.252000e+01,6.591800e+01
1.501950e+02,-4.172850e+02,3.613300e+01,9.326200e+01,3.076200e+01,-3.330100e+01,3.681600e+01,-9.960900e+01,4.960900e+01,2.119100e+01,4.668000e+01,-4.969730e+02,-1.219730e+02,-2.119140e+02,-3.795900e+02,-1.123000e+01,1.441410e+02,6.445300e+01,5.498000e+01
1.459960e+02,-4.307620e+02,3.242200e+01,8.007800e+01,3.203100e+01,-3.388700e+01,3.378900e+01,-1.149410e+02,5.058600e+01,8.789000e+00,5.283200e+01,-5.120120e+02,-1.046870e+02,-2.265620e+02,-3.814450e+02,-3.037100e+01,1.409180e+02,5.839800e+01,4.570300e+01
1.356450e+02,-4.509770e+02,1.982400e+01,5.976600e+01,1.972700e+01,-2.334000e+01,1.396500e+01,-1.419920e+02,3.271500e+01,-1.318400e+01,4.218800e+01,-5.276370e+02,-1.024410e+02,-2.406250e+02,-4.128910e+02,-5.488300e+01,1.290040e+02,4.140600e+01,2.324200e+01
1.424800e+02,-4.359370e+02,3.085900e+01,75,2.861300e+01,-3.544900e+01,25,-1.287110e+02,3.906200e+01,-1.660000e+00,5.253900e+01,-5.137700e+02,-9.072300e+01,-2.334960e+02,-4.003910e+02,-3.310500e+01,1.381840e+02,5.302700e+01,3.632800e+01
1.637700e+02,-4.037110e+02,5.488300e+01,1.035160e+02,4.638700e+01,-5.058600e+01,4.609400e+01,-1.035160e+02,4.980500e+01,2.099600e+01,7.197300e+01,-4.898440e+02,-9.902300e+01,-2.094730e+02,-3.728520e+02,-7.031000e+00,1.600590e+02,7.871100e+01,6.132800e+01
1.823240e+02,-3.807620e+02,7.929700e+01,1.215820e+02,6.152300e+01,-6.318400e+01,6.054700e+01,-8.261700e+01,5.351600e+01,3.359400e+01,6.953100e+01,-4.751950e+02,-1.234370e+02,-1.900390e+02,-3.604490e+02,7.129000e+00,1.745120e+02,9.814500e+01,7.695300e+01
1.740230e+02,-3.807620e+02,9.863300e+01,1.240230e+02,6.767600e+01,-7.031200e+01,5.761700e+01,-7.998000e+01,4.345700e+01,3.427700e+01,2.470700e+01,-4.759770e+02,-1.577150e+02,-1.897460e+02,-3.718750e+02,8.398000e+00,1.692380e+02,9.853500e+01,7.646500e+01
1.985350e+02,-3.458980e+02,1.198240e+02,1.581050e+02,6.914100e+01,-7.216800e+01,7.187500e+01,-5.244100e+01,5.361300e+01,6.142600e+01,9.111300e+01,-4.443360e+02,-1.326170e+02,-1.549800e+02,-3.481450e+02,4.111300e+01,1.916990e+02,1.185550e+02,9.970700e+01
1.933590e+02,-3.545900e+02,7.451200e+01,1.466800e+02,5.244100e+01,-5.712900e+01,6.816400e+01,-6.445300e+01,5.644500e+01,5.537100e+01,1.278320e+02,-4.537110e+02,-1.150390e+02,-1.645510e+02,-3.432620e+02,2.705100e+01,1.808590e+02,1.050780e+02,9.023400e+01
1.702150e+02,-3.833010e+02,5.224600e+01,1.215820e+02,3.642600e+01,-3.955100e+01,4.697300e+01,-8.837900e+01,4.472700e+01,2.968800e+01,9.599600e+01,-4.751950e+02,-1.264650e+02,-1.914060e+02,-3.634770e+02,-2.051000e+00,1.602540e+02,8.154300e+01,6.445300e+01
1.495120e+02,-4.084960e+02,3.925800e+01,1.029300e+02,2.636700e+01,-2.685500e+01,2.968800e+01,-1.059570e+02,3.632800e+01,1.240200e+01,4.882800e+01,-4.962890e+02,-1.332030e+02,-2.216800e+02,-3.859380e+02,-1.748000e+01,1.459960e+02,6.347700e+01,4.570300e+01
1.432620e+02,-4.280270e+02,5.087900e+01,8.955100e+01,3.085900e+01,-3.183600e+01,2.177700e+01,-1.273440e+02,3.056600e+01,-5.762000e+00,1.718700e+01,-5.307620e+02,-1.278320e+02,-2.437500e+02,-4.024410e+02,-4.277300e+01,1.427730e+02,5.761700e+01,3.125000e+01
1.268550e+02,-4.549800e+02,2.089800e+01,6.142600e+01,1.787100e+01,-2.236300e+01,1.318400e+01,-1.473630e+02,3.056600e+01,-2.548800e+01,2.382800e+01,-5.530270e+02,-1.097660e+02,-2.731450e+02,-4.178710e+02,-7.050800e+01,1.260740e+02,4.062500e+01,1.582000e+01
1.265630e+02,-4.473630e+02,1.523400e+01,7.460900e+01,2.402300e+01,-3.252000e+01,2.802700e+01,-1.391600e+02,4.580100e+01,-1.543000e+01,3.867200e+01,-5.421870e+02,-1.132810e+02,-2.595700e+02,-4.116210e+02,-5.449200e+01,1.295900e+02,4.902300e+01,2.998000e+01
1.521480e+02,-4.130860e+02,4.326200e+01,1.017580e+02,4.375000e+01,-4.882800e+01,5.253900e+01,-1.171870e+02,5.537100e+01,9.180000e+00,7.636700e+01,-5.126950e+02,-9.951200e+01,-2.191410e+02,-3.731450e+02,-2.529300e+01,1.530270e+02,7.617200e+01,5.537100e+01
1.750980e+02,-3.869140e+02,7.021500e+01,1.168950e+02,5.625000e+01,-6.025400e+01,6.191400e+01,-9.345700e+01,4.960900e+01,2.587900e+01,1.058590e+02,-4.720700e+02,-9.218800e+01,-1.909180e+02,-3.488280e+02,2.832000e+00,1.702150e+02,9.658200e+01,7.099600e+01
1.750980e+02,-3.772460e+02,7.793000e+01,1.330080e+02,5.576200e+01,-5.947300e+01,5.898400e+01,-8.447300e+01,4.355500e+01,3.066400e+01,9.677700e+01,-4.746090e+02,-1.118160e+02,-1.891600e+02,-3.446290e+02,1.015600e+01,1.714840e+02,1.014650e+02,75
1.962890e+02,-3.451170e+02,9.990200e+01,1.564450e+02,6.562500e+01,-7.011700e+01,6.279300e+01,-6.523400e+01,4.091800e+01,4.697300e+01,1.198240e+02,-4.486330e+02,-1.219730e+02,-1.554690e+02,-3.320310e+02,3.105500e+01,1.884770e+02,1.181640e+02,8.984400e+01
1.912110e+02,-3.551760e+02,9.140600e+01,1.340820e+02,5.752000e+01,-6.240200e+01,5.019500e+01,-8.037100e+01,2.968800e+01,3.603500e+01,1.073240e+02,-4.407230e+02,-1.239260e+02,-1.635740e+02,-3.440430e+02,1.562500e+01,1.779300e+02,1.062500e+02,7.460900e+01
1.680660e+02,-3.874020e+02,6.757800e+01,1.112300e+02,4.072300e+01,-4.345700e+01,2.861300e+01,-1.028320e+02,1.826200e+01,1.904300e+01,6.455100e+01,-4.749020e+02,-1.175780e+02,-1.896480e+02,-3.717770e+02,-8.398000e+00,1.587890e+02,8.437500e+01,5.166000e+01
1.495120e+02,-4.112300e+02,5.244100e+01,9.462900e+01,2.734400e+01,-2.753900e+01,1.201200e+01,-1.215820e+02,1.337900e+01,4.297000e+00,50,-4.909180e+02,-1.302730e+02,-2.119140e+02,-4.032230e+02,-2.607400e+01,1.457030e+02,6.582000e+01,3.408200e+01
1.495120e+02,-4.271480e+02,5.634800e+01,7.753900e+01,2.880900e+01,-2.919900e+01,1.210900e+01,-1.362300e+02,1.884800e+01,-1.064500e+01,5.390600e+01,-5.142580e+02,-1.217770e+02,-2.371090e+02,-4.128910e+02,-4.267600e+01,1.448240e+02,6.093700e+01,2.431600e+01
1.276370e+02,-4.568360e+02,2.324200e+01,5.127000e+01,1.679700e+01,-1.923800e+01,2.930000e+00,-1.593750e+02,1.650400e+01,-3.584000e+01,3.339800e+01,-5.552730e+02,-1.082030e+02,-2.782230e+02,-4.257810e+02,-7.363300e+01,1.246090e+02,4.160200e+01,4.980000e+00
1.323240e+02,-4.455080e+02,2.841800e+01,6.328100e+01,2.382800e+01,-3.095700e+01,1.689500e+01,-1.545900e+02,3.095700e+01,-2.841800e+01,3.437500e+01,-5.408200e+02,-1.150390e+02,-2.534180e+02,-4.160160e+02,-6.357400e+01,1.300780e+02,5.058600e+01,1.669900e+01
1.587890e+02,-4.108400e+02,6.064500e+01,9.238300e+01,4.589800e+01,-5.185500e+01,4.306600e+01,-1.311520e+02,4.306600e+01,-1.172000e+00,7.734400e+01,-4.891600e+02,-1.051760e+02,-2.048830e+02,-3.793950e+02,-3.173800e+01,1.549800e+02,7.832000e+01,4.355500e+01
1.860350e+02,-3.816410e+02,8.759800e+01,1.147460e+02,5.996100e+01,-6.279300e+01,4.736300e+01,-1.101560e+02,3.261700e+01,1.845700e+01,1.027340e+02,-4.690430e+02,-1.013670e+02,-1.945310e+02,-3.651370e+02,-7.324000e+00,1.761720e+02,9.931600e+01,5.771500e+01
1.853520e+02,-3.685550e+02,8.095700e+01,1.317380e+02,5.537100e+01,-5.800800e+01,4.658200e+01,-9.882800e+01,3.105500e+01,2.734400e+01,9.306600e+01,-4.723630e+02,-1.185550e+02,-1.865230e+02,-3.644530e+02,7.520000e+00,1.769530e+02,1.038090e+02,6.601600e+01
2.000980e+02,-3.406250e+02,9.951200e+01,1.567380e+02,6.484400e+01,-6.669900e+01,6.298800e+01,-7.578100e+01,4.472700e+01,4.775400e+01,9.648400e+01,-4.371090e+02,-1.350590e+02,-1.523440e+02,-3.492190e+02,3.564500e+01,1.921870e+02,1.227540e+02,8.808600e+01
1.942380e+02,-3.534180e+02,9.502000e+01,1.441410e+02,5.683600e+01,-6.064500e+01,4.970700e+01,-8.964800e+01,3.134800e+01,3.066400e+01,9.628900e+01,-4.491210e+02,-1.375980e+02,-1.699220e+02,-3.607420e+02,1.142600e+01,1.820310e+02,1.105470e+02,7.011700e+01
1.739260e+02,-3.833010e+02,7.246100e+01,1.165040e+02,4.062500e+01,-4.492200e+01,2.968800e+01,-1.160160e+02,2.285200e+01,8.105000e+00,8.066400e+01,-4.849610e+02,-1.294920e+02,-2.103520e+02,-3.820310e+02,-1.816400e+01,1.621090e+02,8.652300e+01,4.619100e+01
1.548830e+02,-4.065430e+02,4.804700e+01,1.060550e+02,2.587900e+01,-2.753900e+01,1.298800e+01,-1.343750e+02,1.669900e+01,-6.934000e+00,6.074200e+01,-5.074220e+02,-1.228520e+02,-2.256840e+02,-4.093750e+02,-3.418000e+01,1.480470e+02,6.689500e+01,2.841800e+01
150,-4.211910e+02,4.472700e+01,8.105500e+01,2.675800e+01,-2.822300e+01,1.152300e+01,-1.444340e+02,1.640600e+01,-2.343800e+01,6.201200e+01,-5.126950e+02,-1.127930e+02,-2.390630e+02,-4.177730e+02,-4.736300e+01,1.440430e+02,6.162100e+01,2.002000e+01
1.278320e+02,-4.569340e+02,3.300800e+01,4.365200e+01,1.728500e+01,-2.060500e+01,-9.770000e-01,-1.661130e+02,8.887000e+00,-4.472700e+01,3.740200e+01,-5.586910e+02,-1.073240e+02,-2.707030e+02,-4.320310e+02,-7.207000e+01,1.256840e+02,4.414100e+01,-9.800000e-02
1.312500e+02,-4.496090e+02,5.322300e+01,4.912100e+01,2.773400e+01,-3.369100e+01,1.210900e+01,-1.550780e+02,2.236300e+01,-2.392600e+01,3.945300e+01,-5.355470e+02,-100,-250,-4.165040e+02,-4.892600e+01,1.324220e+02,5.302700e+01,1.494100e+01
1.559570e+02,-4.109380e+02,5.644500e+01,8.906300e+01,4.082000e+01,-4.638700e+01,3.613300e+01,-1.247070e+02,3.974600e+01,9.668000e+00,6.220700e+01,-4.978520e+02,-1.130860e+02,-2.181640e+02,-3.881840e+02,-1.709000e+01,1.556640e+02,7.753900e+01,4.541000e+01
1.757810e+02,-3.856450e+02,7.031200e+01,1.083980e+02,5.293000e+01,-5.615200e+01,5.175800e+01,-1.024410e+02,4.580100e+01,2.919900e+01,8.867200e+01,-475,-1.223630e+02,-1.982420e+02,-3.729490e+02,1.270000e+00,1.707030e+02,9.775400e+01,6.572300e+01
1.691410e+02,-3.853520e+02,8.369100e+01,1.082030e+02,5.820300e+01,-6.103500e+01,5.263700e+01,-9.531200e+01,4.091800e+01,3.222700e+01,6.972700e+01,-4.746090e+02,-1.460940e+02,-1.949220e+02,-3.719730e+02,5.859000e+00,1.656250e+02,1.001950e+02,6.972700e+01
1.865230e+02,-3.555660e+02,1.089840e+02,1.410160e+02,6.503900e+01,-6.845700e+01,6.377000e+01,-7.285200e+01,4.755900e+01,5.087900e+01,7.753900e+01,-4.494140e+02,-1.474610e+02,-1.774410e+02,-3.594730e+02,2.763700e+01,1.827150e+02,1.177730e+02,8.994100e+01
1.893550e+02,-3.581050e+02,8.632800e+01,1.455080e+02,4.726600e+01,-5.312500e+01,5.468800e+01,-7.685500e+01,4.355500e+01,4.433600e+01,9.668000e+01,-4.709960e+02,-1.279300e+02,-1.857420e+02,-3.699220e+02,1.474600e+01,1.791020e+02,1.080080e+02,8.105500e+01
1.635740e+02,-3.895510e+02,5.283200e+01,1.102540e+02,3.046900e+01,-3.691400e+01,3.896500e+01,-9.384800e+01,4.296900e+01,3.085900e+01,8.886700e+01,-4.852540e+02,-1.226560e+02,-1.969730e+02,-3.880860e+02,-2.148000e+00,1.554690e+02,8.330100e+01,6.191400e+01
1.428710e+02,-4.149410e+02,3.349600e+01,8.720700e+01,1.914100e+01,-2.275400e+01,2.431600e+01,-1.111330e+02,3.593800e+01,1.552700e+01,6.171900e+01,-4.977540e+02,-1.225590e+02,-2.129880e+02,-3.972660e+02,-2.080100e+01,1.395510e+02,6.435500e+01,4.521500e+01
1.388670e+02,-4.303710e+02,3.496100e+01,7.109400e+01,2.168000e+01,-2.392600e+01,2.109400e+01,-1.226560e+02,3.642600e+01,4.492000e+00,4.462900e+01,-5.137700e+02,-1.141600e+02,-2.312500e+02,-3.961910e+02,-3.603500e+01,1.372070e+02,5.986300e+01,3.671900e+01
1.250980e+02,-4.586910e+02,2.490200e+01,4.375000e+01,1.377000e+01,-1.709000e+01,4.492000e+00,-1.482420e+02,2.421900e+01,-1.865200e+01,1.982400e+01,-5.653320e+02,-1.141600e+02,-2.663090e+02,-4.223630e+02,-6.113300e+01,1.234370e+02,4.287100e+01,1.308600e+01
1.250980e+02,-4.541020e+02,3.369100e+01,4.794900e+01,2.041000e+01,-2.617200e+01,1.064500e+01,-1.453130e+02,2.880900e+01,-1.230500e+01,2.255900e+01,-5.506840e+02,-1.013670e+02,-2.631840e+02,-4.181640e+02,-5.185500e+01,1.258790e+02,4.726600e+01,2.099600e+01
1.442380e+02,-4.228520e+02,5.859400e+01,7.451200e+01,4.062500e+01,-4.550800e+01,3.369100e+01,-1.206050e+02,4.277300e+01,8.789000e+00,4.189500e+01,-5.104490e+02,-1.303710e+02,-2.347660e+02,-4.004880e+02,-2.919900e+01,1.439450e+02,7.002000e+01,4.619100e+01
1.643550e+02,-3.959960e+02,6.904300e+01,9.892600e+01,5.830100e+01,-6.084000e+01,4.892600e+01,-9.628900e+01,3.964800e+01,2.871100e+01,8.222700e+01,-4.849610e+02,-1.102540e+02,-1.952150e+02,-3.646480e+02,-2.148000e+00,1.606450e+02,9.091800e+01,6.328100e+01
1.860350e+02,-3.674800e+02,8.222700e+01,125,4.863300e+01,-5.058600e+01,4.765600e+01,-7.060500e+01,3.847700e+01,5.058600e+01,1.284180e+02,-4.552730e+02,-9.834000e+01,-1.701170e+02,-3.510740e+02,2.666000e+01,1.773440e+02,1.022460e+02,7.861300e+01
1.960940e+02,-3.402340e+02,9.550800e+01,1.615230e+02,5.410200e+01,-5.712900e+01,5.791000e+01,-5.058600e+01,4.941400e+01,6.894500e+01,1.162110e+02,-4.388670e+02,-1.414060e+02,-1.545900e+02,-3.456050e+02,4.248000e+01,1.907230e+02,1.172850e+02,9.775400e+01
1.828120e+02,-3.555660e+02,8.740200e+01,1.408200e+02,4.970700e+01,-5.527300e+01,5.234400e+01,-6.191400e+01,4.570300e+01,5.625000e+01,9.082000e+01,-4.561520e+02,-1.448240e+02,-1.754880e+02,-3.536130e+02,2.168000e+01,1.751950e+02,1.055660e+02,8.652300e+01
1.663090e+02,-3.845700e+02,6.835900e+01,1.009770e+02,3.955100e+01,-4.335900e+01,4.326200e+01,-8.105500e+01,4.414100e+01,4.199200e+01,7.607400e+01,-4.677730e+02,-1.261720e+02,-1.754880e+02,-3.620120e+02,1.132800e+01,1.545900e+02,8.408200e+01,6.621100e+01
1.470700e+02,-4.075200e+02,4.921900e+01,8.369100e+01,25,-2.734400e+01,2.490200e+01,-9.853500e+01,3.408200e+01,2.929700e+01,5.830100e+01,-4.840820e+02,-1.223630e+02,-1.927730e+02,-3.862300e+02,-3.027000e+00,1.398440e+02,6.464800e+01,4.843800e+01
1.381840e+02,-4.225590e+02,4.277300e+01,7.285200e+01,2.558600e+01,-2.812500e+01,2.304700e+01,-1.151370e+02,3.710900e+01,1.406200e+01,5.927700e+01,-5.120120e+02,-1.092770e+02,-2.169920e+02,-3.945310e+02,-2.959000e+01,1.346680e+02,5.722700e+01,3.925800e+01
1.272460e+02,-4.465820e+02,2.353500e+01,4.638700e+01,1.865200e+01,-2.236300e+01,1.523400e+01,-1.398440e+02,3.339800e+01,-4.590000e+00,5.761700e+01,-5.310550e+02,-9.121100e+01,-2.424800e+02,-4.066410e+02,-5.439500e+01,1.211910e+02,4.209000e+01,2.168000e+01
1.277340e+02,-4.455080e+02,2.841800e+01,4.785200e+01,2.334000e+01,-2.773400e+01,1.943400e+01,-1.386720e+02,3.437500e+01,-2.539000e+00,6.093700e+01,-5.258790e+02,-8.486300e+01,-2.393550e+02,-4.024410e+02,-3.857400e+01,1.233400e+02,4.658200e+01,2.734400e+01
1.476560e+02,-4.125980e+02,4.804700e+01,8.134800e+01,3.837900e+01,-4.228500e+01,3.906200e+01,-1.108400e+02,4.326200e+01,1.875000e+01,7.470700e+01,-4.992190e+02,-9.169900e+01,-2.093750e+02,-3.798830e+02,-9.766000e+00,1.432620e+02,6.884800e+01,5.117200e+01
1.697270e+02,-3.856450e+02,7.421900e+01,1.042970e+02,5.498000e+01,-5.644500e+01,6.064500e+01,-9.335900e+01,5.527300e+01,3.886700e+01,9.502000e+01,-4.729490e+02,-9.521500e+01,-1.846680e+02,-3.566410e+02,2.539000e+00,1.611330e+02,9.023400e+01,7.109400e+01
1.779300e+02,-3.730470e+02,8.925800e+01,1.130860e+02,5.908200e+01,-5.957000e+01,6.650400e+01,-7.890600e+01,5.888700e+01,4.814500e+01,1.016600e+02,-4.680660e+02,-1.062500e+02,-1.831050e+02,-3.590820e+02,9.668000e+00,1.664060e+02,9.697300e+01,8.017600e+01
1.863280e+02,-3.455080e+02,9.492200e+01,1.450200e+02,6.474600e+01,-6.679700e+01,7.871100e+01,-5.156200e+01,6.865200e+01,7.099600e+01,1.044920e+02,-4.384770e+02,-1.234370e+02,-1.601560e+02,-3.446290e+02,4.209000e+01,1.788090e+02,1.137700e+02,1.014650e+02
1.810550e+02,-3.543950e+02,9.043000e+01,1.370120e+02,5.791000e+01,-6.269500e+01,6.923800e+01,-6.289100e+01,5.878900e+01,5.673800e+01,100,-4.544920e+02,-1.281250e+02,-1.718750e+02,-3.510740e+02,2.578100e+01,1.709960e+02,1.049800e+02,8.808600e+01
1.581050e+02,-3.874020e+02,6.621100e+01,1.060550e+02,4.160200e+01,-4.707000e+01,4.628900e+01,-8.916000e+01,4.111300e+01,3.144500e+01,7.656300e+01,-4.867190e+02,-1.186520e+02,-2.000980e+02,-3.650390e+02,-3.711000e+00,1.486330e+02,7.939500e+01,5.986300e+01
1.412110e+02,-4.096680e+02,4.296900e+01,8.808600e+01,2.509800e+01,-2.763700e+01,2.460900e+01,-1.027340e+02,3.134800e+01,2.207000e+01,4.746100e+01,-4.884770e+02,-1.200200e+02,-2.080080e+02,-3.813480e+02,-1.250000e+01,1.342770e+02,6.015600e+01,4.316400e+01
1.379880e+02,-4.211910e+02,3.447300e+01,7.714800e+01,2.099600e+01,-2.285200e+01,1.835900e+01,-1.113280e+02,2.959000e+01,1.533200e+01,5.605500e+01,-500,-1.195310e+02,-2.269530e+02,-3.971680e+02,-1.826200e+01,1.331050e+02,5.410200e+01,3.447300e+01
1.242190e+02,-4.487300e+02,2.558600e+01,4.834000e+01,1.611300e+01,-1.884800e+01,8.008000e+00,-1.372070e+02,2.158200e+01,-1.220700e+01,5.253900e+01,-5.394530e+02,-1.013670e+02,-2.568360e+02,-4.123050e+02,-5.048800e+01,1.208980e+02,4.013700e+01,1.347700e+01
1.283200e+02,-4.412110e+02,3.027300e+01,5.615200e+01,2.285200e+01,-2.861300e+01,2.031300e+01,-1.406250e+02,3.515600e+01,-1.113300e+01,4.179700e+01,-5.238280e+02,-9.072300e+01,-2.322270e+02,-3.991210e+02,-4.648400e+01,1.261720e+02,4.521500e+01,2.109400e+01
1.506840e+02,-4.080080e+02,5.283200e+01,8.457000e+01,3.779300e+01,-4.335900e+01,3.584000e+01,-1.170900e+02,4.140600e+01,1.181600e+01,5.703100e+01,-4.963870e+02,-1.004880e+02,-2.066410e+02,-3.885740e+02,-1.650400e+01,1.468750e+02,6.923800e+01,4.502000e+01
1.708010e+02,-3.794920e+02,7.666000e+01,1.103520e+02,5.410200e+01,-5.712900e+01,4.804700e+01,-9.736300e+01,4.091800e+01,2.793000e+01,7.099600e+01,-4.828120e+02,-1.006840e+02,-1.976560e+02,-3.708010e+02,-1.855000e+00,1.640620e+02,9.003900e+01,6.132800e+01
1.718750e+02,-3.745120e+02,8.877000e+01,1.094730e+02,5.810500e+01,-6.162100e+01,4.980500e+01,-8.906300e+01,3.515600e+01,3.027300e+01,7.207000e+01,-4.680660e+02,-1.296870e+02,-1.952150e+02,-3.648440e+02,4.004000e+00,1.636720e+02,9.531200e+01,6.582000e+01
1.846680e+02,-3.493160e+02,1.162110e+02,1.370120e+02,6.269500e+01,-6.582000e+01,6.406300e+01,-6.474600e+01,4.785200e+01,5.058600e+01,9.414100e+01,-4.381840e+02,-1.369140e+02,-1.721680e+02,-3.511720e+02,2.841800e+01,1.800780e+02,1.138670e+02,8.808600e+01
1.798830e+02,-3.558590e+02,1.010740e+02,1.330080e+02,5.478500e+01,-6.005900e+01,5.927700e+01,-7.011700e+01,4.648400e+01,4.502000e+01,1.071290e+02,-4.588870e+02,-1.333010e+02,-1.817380e+02,-3.549800e+02,1.386700e+01,1.734370e+02,1.079100e+02,8.242200e+01
1.582030e+02,-3.847660e+02,8.095700e+01,1.044920e+02,4.423800e+01,-4.980500e+01,3.984400e+01,-9.580100e+01,3.281200e+01,1.835900e+01,7.734400e+01,-4.851560e+02,-1.334960e+02,-2.037110e+02,-3.760740e+02,-1.347700e+01,1.525390e+02,8.662100e+01,5.742200e+01
1.473630e+02,-4.001950e+02,3.867200e+01,9.335900e+01,2.607400e+01,-2.841800e+01,2.460900e+01,-1.074220e+02,2.421900e+01,7.422000e+00,7.402300e+01,-4.963870e+02,-1.209960e+02,-2.143550e+02,-3.889650e+02,-1.728500e+01,1.422850e+02,6.904300e+01,4.257800e+01
1.395510e+02,-4.162110e+02,4.326200e+01,8.252000e+01,2.402300e+01,-2.519500e+01,1.377000e+01,-125,1.767600e+01,-5.762000e+00,4.970700e+01,-5.250980e+02,-1.238280e+02,-2.399410e+02,-4.121090e+02,-3.164100e+01,1.395510e+02,6.171900e+01,3.027300e+01
1.247070e+02,-4.444340e+02,2.421900e+01,5.390600e+01,1.533200e+01,-1.728500e+01,5.957000e+00,-1.495120e+02,1.435500e+01,-2.675800e+01,4.052700e+01,-5.665040e+02,-1.137700e+02,-2.692380e+02,-4.220700e+02,-6.191400e+01,1.256840e+02,4.697300e+01,1.191400e+01
1.278320e+02,-4.425780e+02,2.627000e+01,4.765600e+01,2.168000e+01,-2.724600e+01,1.767600e+01,-1.463870e+02,2.675800e+01,-1.806600e+01,4.091800e+01,-5.346680e+02,-9.960900e+01,-2.416990e+02,-4.152340e+02,-4.765600e+01,1.285160e+02,5.175800e+01,2.070300e+01
1.528320e+02,-4.101560e+02,5.546900e+01,7.373000e+01,4.023400e+01,-4.619100e+01,3.896500e+01,-1.243160e+02,3.798800e+01,1.562000e+00,5.888700e+01,-4.962890e+02,-1.010740e+02,-2.133790e+02,-3.980470e+02,-2.519500e+01,1.497070e+02,7.666000e+01,4.560500e+01
1.728520e+02,-3.834960e+02,7.460900e+01,9.892600e+01,5.410200e+01,-5.878900e+01,5.488300e+01,-1.057620e+02,4.453100e+01,1.748000e+01,9.443400e+01,-4.828120e+02,-1.055660e+02,-1.957030e+02,-3.789060e+02,-7.617000e+00,1.671880e+02,9.804700e+01,6.474600e+01
1.773440e+02,-3.670900e+02,7.968800e+01,1.193360e+02,5.488300e+01,-5.820300e+01,5.898400e+01,-9.179700e+01,4.423800e+01,2.812500e+01,1.001950e+02,-4.754880e+02,-1.225590e+02,-1.847660e+02,-3.763670e+02,7.617000e+00,1.725590e+02,1.053710e+02,7.324200e+01
1.896480e+02,-3.413090e+02,9.804700e+01,1.446290e+02,6.347700e+01,-6.562500e+01,6.777300e+01,-7.080100e+01,4.599600e+01,4.726600e+01,1.122070e+02,-4.422850e+02,-1.307620e+02,-1.589840e+02,-3.738280e+02,3.398400e+01,1.863280e+02,1.212890e+02,9.003900e+01
1.891600e+02,-3.456050e+02,9.873000e+01,1.340820e+02,6.025400e+01,-6.445300e+01,6.435500e+01,-7.587900e+01,4.316400e+01,4.179700e+01,1.014650e+02,-4.473630e+02,-1.345700e+02,-1.670900e+02,-3.689450e+02,2.187500e+01,1.822270e+02,1.172850e+02,8.427700e+01
1.679690e+02,-3.754880e+02,7.998000e+01,1.074220e+02,4.306600e+01,-4.931600e+01,4.423800e+01,-1.051760e+02,2.685500e+01,1.435500e+01,6.757800e+01,-4.788090e+02,-1.375980e+02,-2.014650e+02,-3.778320e+02,-9.961000e+00,1.621090e+02,9.316400e+01,5.654300e+01
1.461910e+02,-4.030270e+02,5.156200e+01,8.798800e+01,2.822300e+01,-3.252000e+01,2.919900e+01,-1.259770e+02,2.353500e+01,-4.395000e+00,5.195300e+01,-4.962890e+02,-1.334960e+02,-2.218750e+02,-3.927730e+02,-3.046900e+01,1.443360e+02,7.275400e+01,3.828100e+01
1.382810e+02,-4.195310e+02,4.326200e+01,7.832000e+01,2.607400e+01,-2.880900e+01,2.431600e+01,-1.440430e+02,2.558600e+01,-2.031300e+01,4.775400e+01,-5.328120e+02,-1.269530e+02,-2.439450e+02,-4.050780e+02,-4.550800e+01,1.398440e+02,6.503900e+01,2.734400e+01
1.295900e+02,-4.375980e+02,3.252000e+01,5.781300e+01,2.353500e+01,-2.656300e+01,1.709000e+01,-1.622070e+02,2.236300e+01,-3.593800e+01,3.017600e+01,-5.495120e+02,-1.116210e+02,-2.556640e+02,-4.094730e+02,-6.308600e+01,1.321290e+02,5.380900e+01,1.210900e+01
1.263670e+02,-4.398440e+02,3.232400e+01,5.576200e+01,2.441400e+01,-3.037100e+01,2.070300e+01,-1.611330e+02,2.841800e+01,-3.535200e+01,2.226600e+01,-5.339840e+02,-1.097660e+02,-2.447270e+02,-4.125000e+02,-5.820300e+01,1.321290e+02,5.468800e+01,1.591800e+01
1.483400e+02,-4.085940e+02,5.839800e+01,8.603500e+01,3.798800e+01,-4.355500e+01,3.486300e+01,-1.358400e+02,3.466800e+01,-1.621100e+01,4.502000e+01,-5.161130e+02,-1.145510e+02,-2.236330e+02,-4.057620e+02,-3.261700e+01,1.541990e+02,7.783200e+01,3.798800e+01
1.744140e+02,-3.773440e+02,8.877000e+01,1.001950e+02,5.566400e+01,-5.918000e+01,4.941400e+01,-1.151370e+02,3.877000e+01,2.832000e+00,7.480500e+01,-4.848630e+02,-1.125980e+02,-2.027340e+02,-3.918950e+02,-1.181600e+01,1.741210e+02,1.011720e+02,5.957000e+01
1.877930e+02,-3.557620e+02,9.150400e+01,1.172850e+02,5.517600e+01,-5.752000e+01,4.990200e+01,-8.994100e+01,3.505900e+01,2.128900e+01,8.369100e+01,-4.566410e+02,-1.276370e+02,-1.805660e+02,-3.873050e+02,1.259800e+01,1.830080e+02,1.110350e+02,7.158200e+01
2.009770e+02,-3.302730e+02,1.071290e+02,1.467770e+02,6.074200e+01,-6.259800e+01,5.517600e+01,-7.080100e+01,3.740200e+01,4.960900e+01,8.955100e+01,-4.321290e+02,-1.424800e+02,-1.579100e+02,-3.818360e+02,3.691400e+01,1.966800e+02,1.259770e+02,8.955100e+01
1.958010e+02,-3.334960e+02,1.013670e+02,1.484370e+02,5.947300e+01,-6.269500e+01,4.687500e+01,-7.431600e+01,2.617200e+01,4.433600e+01,8.115200e+01,-4.372070e+02,-1.587890e+02,-1.632810e+02,-3.867190e+02,2.168000e+01,1.909180e+02,1.208980e+02,8.183600e+01
1.728520e+02,-3.662110e+02,6.904300e+01,1.197270e+02,4.345700e+01,-4.834000e+01,3.183600e+01,-9.472700e+01,2.099600e+01,1.933600e+01,4.951200e+01,-4.787110e+02,-1.668950e+02,-1.970700e+02,-4.055660e+02,-4.004000e+00,1.674800e+02,9.638700e+01,5.800800e+01
1.479490e+02,-3.969730e+02,4.541000e+01,9.394500e+01,2.919900e+01,-3.261700e+01,2.021500e+01,-1.138670e+02,2.158200e+01,3.906000e+00,1.152300e+01,-5.059570e+02,-1.479490e+02,-2.176760e+02,-4.202150e+02,-2.070300e+01,1.464840e+02,7.402300e+01,4.150400e+01
1.524410e+02,-4.029300e+02,4.951200e+01,7.871100e+01,2.343800e+01,-2.402300e+01,2.002000e+01,-1.139650e+02,3.085900e+01,6.445000e+00,6.308600e+01,-5.002930e+02,-1.053710e+02,-2.246090e+02,-4.121090e+02,-1.621100e+01,1.493160e+02,7.148400e+01,4.121100e+01
1.458010e+02,-4.232420e+02,4.199200e+01,5.810500e+01,1.835900e+01,-1.953100e+01,1.318400e+01,-1.311520e+02,3.349600e+01,-9.473000e+00,6.552700e+01,-5.288090e+02,-1.028320e+02,-2.417970e+02,-4.186520e+02,-3.691400e+01,1.410160e+02,6.025400e+01,2.763700e+01
1.375000e+02,-4.291020e+02,3.779300e+01,5.654300e+01,2.119100e+01,-2.675800e+01,1.923800e+01,-1.375980e+02,4.043000e+01,-1.455100e+01,5.283200e+01,-5.302730e+02,-9.599600e+01,-2.338870e+02,-4.174800e+02,-4.072300e+01,1.366210e+02,5.703100e+01,2.734400e+01
1.536130e+02,-4.004880e+02,5.234400e+01,8.916000e+01,3.476600e+01,-4.043000e+01,3.515600e+01,-1.134770e+02,4.589800e+01,1.044900e+01,7.138700e+01,-5.167970e+02,-9.834000e+01,-2.134770e+02,-3.898440e+02,-1.543000e+01,1.540040e+02,7.763700e+01,5.058600e+01
1.737300e+02,-3.729490e+02,7.353500e+01,1.093750e+02,5.117200e+01,-5.537100e+01,5.097700e+01,-9.062500e+01,50,3.349600e+01,9.443400e+01,-4.875000e+02,-9.980500e+01,-1.961910e+02,-3.613280e+02,4.688000e+00,1.705080e+02,9.873000e+01,7.041000e+01
1.814450e+02,-3.588870e+02,8.476600e+01,1.195310e+02,5.683600e+01,-5.839800e+01,5.986300e+01,-7.900400e+01,5.224600e+01,4.365200e+01,9.736300e+01,-4.710940e+02,-1.028320e+02,-1.887700e+02,-3.432620e+02,1.191400e+01,1.758790e+02,1.080080e+02,8.144500e+01
1.857420e+02,-3.395510e+02,9.834000e+01,1.425780e+02,6.220700e+01,-6.367200e+01,6.689500e+01,-5.986300e+01,5.986300e+01,5.927700e+01,8.652300e+01,-4.595700e+02,-1.499020e+02,-1.821290e+02,-3.450200e+02,2.998000e+01,1.827150e+02,1.181640e+02,9.746100e+01
1.777340e+02,-3.486330e+02,1.074220e+02,1.374020e+02,6.806600e+01,-7.246100e+01,6.162100e+01,-6.650400e+01,5.478500e+01,4.931600e+01,7.119100e+01,-4.706050e+02,-2.080080e+02,-1.839840e+02,-3.608400e+02,1.904300e+01,1.739260e+02,1.118160e+02,8.877000e+01
1.594730e+02,-3.756840e+02,5.908200e+01,1.095700e+02,5.039100e+01,-5.468800e+01,4.863300e+01,-8.046900e+01,5.253900e+01,3.994100e+01,8.076200e+01,-4.962890e+02,-1.921870e+02,-1.968750e+02,-3.745120e+02,5.078000e+00,1.540040e+02,8.750000e+01,7.109400e+01
1.402340e+02,-4.009770e+02,3.691400e+01,7.744100e+01,3.740200e+01,-3.945300e+01,3.554700e+01,-9.531200e+01,5.009800e+01,2.919900e+01,5.322300e+01,-4.941410e+02,-1.777340e+02,-2.144530e+02,-3.898440e+02,-8.105000e+00,1.363280e+02,6.660200e+01,5.498000e+01
1.317380e+02,-4.178710e+02,3.867200e+01,6.728500e+01,3.701200e+01,-3.935500e+01,2.822300e+01,-1.118160e+02,4.619100e+01,1.904300e+01,2.480500e+01,-5.028320e+02,-1.742190e+02,-2.149410e+02,-3.971680e+02,-1.640600e+01,1.307620e+02,5.605500e+01,4.248000e+01
1.211910e+02,-4.418950e+02,2.636700e+01,3.759800e+01,3.769500e+01,-4.082000e+01,2.558600e+01,-1.291020e+02,4.658200e+01,1.758000e+00,3.867200e+01,-5.312500e+02,-1.543950e+02,-2.396480e+02,-3.927730e+02,-3.584000e+01,1.179690e+02,4.423800e+01,2.724600e+01
1.137700e+02,-4.488280e+02,2.558600e+01,2.880900e+01,3.603500e+01,-4.150400e+01,2.382800e+01,-1.370120e+02,4.716800e+01,-5.664000e+00,3.652300e+01,-5.376950e+02,-1.542970e+02,-2.526370e+02,-3.974610e+02,-4.414100e+01,1.133790e+02,3.886700e+01,2.275400e+01
1.351560e+02,-4.184570e+02,4.531200e+01,5.908200e+01,5.068400e+01,-5.585900e+01,4.560500e+01,-1.120120e+02,6.054700e+01,1.855500e+01,5.898400e+01,-5.106450e+02,-1.583010e+02,-2.231450e+02,-3.740230e+02,-1.660200e+01,1.337890e+02,6.191400e+01,4.785200e+01
1.591800e+02,-3.881840e+02,7.265600e+01,8.662100e+01,6.572300e+01,-6.894500e+01,6.503900e+01,-9.062500e+01,6.875000e+01,4.003900e+01,8.544900e+01,-4.871090e+02,-1.693360e+02,-2.016600e+02,-3.493160e+02,5.664000e+00,1.540040e+02,8.525400e+01,6.865200e+01
1.648440e+02,-3.741210e+02,8.447300e+01,9.941400e+01,6.992200e+01,-7.255900e+01,6.914100e+01,-8.330100e+01,6.640600e+01,4.677700e+01,8.359400e+01,-4.767580e+02,-1.859380e+02,-1.941410e+02,-3.434570e+02,1.455100e+01,1.584960e+02,9.326200e+01,7.627000e+01
1.756840e+02,-3.486330e+02,7.646500e+01,1.282230e+02,7.207000e+01,-7.548800e+01,7.470700e+01,-6.240200e+01,6.845700e+01,6.679700e+01,1.008790e+02,-4.513670e+02,-1.950200e+02,-1.712890e+02,-3.385740e+02,3.398400e+01,1.683590e+02,1.049800e+02,9.306600e+01
1.780270e+02,-3.448240e+02,8.330100e+01,1.416990e+02,6.972700e+01,-7.460900e+01,6.728500e+01,-6.220700e+01,5.742200e+01,6.250000e+01,8.994100e+01,-4.671870e+02,-2.087890e+02,-1.680660e+02,-3.498050e+02,2.021500e+01,1.699220e+02,1.050780e+02,8.789100e+01
1.604490e+02,-3.732420e+02,7.138700e+01,1.033200e+02,5.488300e+01,-6.005900e+01,4.687500e+01,-7.890600e+01,4.502000e+01,4.140600e+01,6.494100e+01,-4.792970e+02,-2.089840e+02,-1.792970e+02,-3.717770e+02,9.180000e+00,1.500980e+02,8.203100e+01,6.367200e+01
1.373050e+02,-4.012700e+02,4.668000e+01,7.304700e+01,4.267600e+01,-4.531200e+01,2.910200e+01,-9.804700e+01,3.662100e+01,2.382800e+01,5.371100e+01,-4.886720e+02,-1.943360e+02,-1.990230e+02,-3.917970e+02,-9.800000e-02,1.300780e+02,6.035200e+01,4.335900e+01
1.304690e+02,-4.157230e+02,3.613300e+01,6.250000e+01,3.837900e+01,-4.052700e+01,2.216800e+01,-1.151370e+02,3.398400e+01,1.103500e+01,4.628900e+01,-5.055660e+02,-1.930660e+02,-2.234370e+02,-4.029300e+02,-1.474600e+01,1.264650e+02,5.166000e+01,3.222700e+01
1.222660e+02,-4.351560e+02,3.076200e+01,4.404300e+01,3.593800e+01,-3.828100e+01,1.162100e+01,-1.342770e+02,2.578100e+01,-5.371000e+00,3.261700e+01,-5.309570e+02,-1.878910e+02,-2.452150e+02,-4.199220e+02,-3.544900e+01,1.200200e+02,4.248000e+01,1.552700e+01
1.159180e+02,-4.441410e+02,2.207000e+01,3.544900e+01,3.125000e+01,-3.710900e+01,9.668000e+00,-1.402340e+02,2.578100e+01,-1.103500e+01,2.578100e+01,-5.371090e+02,-1.800780e+02,-2.523440e+02,-4.244140e+02,-4.130900e+01,1.149410e+02,3.818400e+01,1.113300e+01
1.315430e+02,-4.202150e+02,4.306600e+01,5.781300e+01,4.853500e+01,-5.351600e+01,2.900400e+01,-1.227540e+02,3.740200e+01,5.176000e+00,4.082000e+01,-5.175780e+02,-1.757810e+02,-2.318360e+02,-3.973630e+02,-2.353500e+01,1.308590e+02,5.937500e+01,3.281200e+01
1.505860e+02,-3.911130e+02,5.966800e+01,8.828100e+01,6.621100e+01,-6.933600e+01,4.423800e+01,-1.092770e+02,4.033200e+01,1.220700e+01,4.453100e+01,-4.998050e+02,-1.862300e+02,-2.105470e+02,-3.811520e+02,-1.201200e+01,1.480470e+02,8.017600e+01,4.931600e+01
1.676760e+02,-3.701170e+02,7.744100e+01,1.025390e+02,6.914100e+01,-7.080100e+01,5.419900e+01,-9.472700e+01,4.638700e+01,2.753900e+01,8.623000e+01,-4.833010e+02,-1.958010e+02,-1.962890e+02,-3.719730e+02,3.125000e+00,1.594730e+02,9.316400e+01,6.435500e+01
1.786130e+02,-3.493160e+02,9.316400e+01,1.239260e+02,7.011700e+01,-7.314500e+01,6.171900e+01,-7.138700e+01,5.107400e+01,4.863300e+01,1.009770e+02,-4.503910e+02,-2.018550e+02,-1.833010e+02,-3.619140e+02,2.460900e+01,1.718750e+02,1.065430e+02,8.027300e+01
1.800780e+02,-3.441410e+02,9.355500e+01,1.352540e+02,6.728500e+01,-7.207000e+01,5.263700e+01,-7.431600e+01,3.623000e+01,4.257800e+01,9.882800e+01,-4.776370e+02,-2.163090e+02,-1.886720e+02,-3.704100e+02,1.992200e+01,1.741210e+02,1.063480e+02,7.460900e+01
1.644530e+02,-3.681640e+02,7.539100e+01,9.863300e+01,5.742200e+01,-6.269500e+01,4.091800e+01,-9.462900e+01,3.476600e+01,2.529300e+01,8.486300e+01,-4.809570e+02,-2.039060e+02,-1.938480e+02,-3.897460e+02,-5.860000e-01,1.550780e+02,8.525400e+01,5.556600e+01
1.407230e+02,-3.962890e+02,4.853500e+01,7.421900e+01,4.462900e+01,-4.726600e+01,2.949200e+01,-1.153320e+02,3.427700e+01,7.227000e+00,5.498000e+01,-4.894530e+02,-1.954100e+02,-2.070310e+02,-4.029300e+02,-2.197300e+01,1.359380e+02,6.484400e+01,3.906200e+01
1.319340e+02,-4.136720e+02,4.043000e+01,6.357400e+01,3.730500e+01,-3.906200e+01,1.123000e+01,-1.301760e+02,1.591800e+01,-6.641000e+00,3.750000e+01,-5.079100e+02,-2.000980e+02,-2.241210e+02,-4.190430e+02,-3.193400e+01,1.309570e+02,5.429700e+01,2.294900e+01
1.276370e+02,-4.331050e+02,3.173800e+01,4.199200e+01,3.369100e+01,-3.476600e+01,0,-1.482420e+02,7.520000e+00,-2.226600e+01,3.378900e+01,-5.302730e+02,-1.933590e+02,-2.482420e+02,-4.263670e+02,-4.941400e+01,1.244140e+02,4.472700e+01,7.129000e+00
1.123050e+02,-4.515620e+02,1.914100e+01,2.929700e+01,3.408200e+01,-3.789100e+01,8.790000e-01,-1.636720e+02,1.093700e+01,-3.632800e+01,1.562000e+00,-5.480470e+02,-2.078120e+02,-2.644530e+02,-4.328120e+02,-6.845700e+01,1.131840e+02,3.642600e+01,-1.950000e-01
1.234370e+02,-4.276370e+02,3.798800e+01,5.849600e+01,4.951200e+01,-5.546900e+01,2.177700e+01,-1.453130e+02,2.597700e+01,-1.621100e+01,1.093700e+01,-5.315430e+02,-2.022460e+02,-2.492190e+02,-4.167970e+02,-4.941400e+01,1.290040e+02,5.722700e+01,2.285200e+01
1.571290e+02,-3.909180e+02,7.568400e+01,8.222700e+01,5.986300e+01,-6.367200e+01,3.789100e+01,-1.117190e+02,3.818400e+01,1.757800e+01,7.959000e+01,-4.973630e+02,-1.809570e+02,-2.179690e+02,-3.952150e+02,-1.425800e+01,1.553710e+02,8.447300e+01,5.039100e+01
1.680660e+02,-3.736330e+02,8.418000e+01,9.628900e+01,6.425800e+01,-6.718800e+01,3.505900e+01,-1.027340e+02,2.529300e+01,2.031300e+01,1.060550e+02,-4.858400e+02,-1.922850e+02,-2.005860e+02,-3.851560e+02,-5.371000e+00,1.629880e+02,9.482400e+01,5.576200e+01
1.677730e+02,-3.593750e+02,9.707000e+01,1.179690e+02,6.884800e+01,-7.265600e+01,4.306600e+01,-9.384800e+01,3.066400e+01,2.744100e+01,7.783200e+01,-4.681640e+02,-2.272460e+02,-1.875000e+02,-3.785160e+02,5.273000e+00,1.671880e+02,1.049800e+02,6.777300e+01
1.732420e+02,-3.502930e+02,9.179700e+01,1.243160e+02,7.041000e+01,-75,5.683600e+01,-8.457000e+01,4.765600e+01,4.023400e+01,7.734400e+01,-4.667970e+02,-2.322270e+02,-1.791990e+02,-3.664060e+02,1.835900e+01,1.701170e+02,1.103520e+02,7.841800e+01
1.618160e+02,-3.707030e+02,6.318400e+01,9.873000e+01,5.332000e+01,-5.800800e+01,3.466800e+01,-1.007810e+02,3.457000e+01,2.929700e+01,8.281200e+01,-4.717770e+02,-2.178710e+02,-1.906250e+02,-3.882810e+02,6.250000e+00,1.541990e+02,9.003900e+01,5.761700e+01
1.427730e+02,-3.959960e+02,4.091800e+01,7.783200e+01,3.642600e+01,-3.955100e+01,7.910000e+00,-1.196290e+02,1.035200e+01,1.123000e+01,6.689500e+01,-4.851560e+02,-2.092770e+02,-2.094730e+02,-4.071290e+02,-9.473000e+00,1.384770e+02,6.787100e+01,3.349600e+01
1.303710e+02,-4.163090e+02,3.486300e+01,6.191400e+01,3.212900e+01,-3.408200e+01,9.800000e-02,-1.390620e+02,5.469000e+00,-6.934000e+00,4.511700e+01,-5.083010e+02,-2.049800e+02,-2.282230e+02,-4.168950e+02,-2.890600e+01,1.309570e+02,5.566400e+01,1.845700e+01
1.217770e+02,-4.372070e+02,3.056600e+01,4.179700e+01,2.851600e+01,-3.173800e+01,-6.738000e+00,-1.608400e+02,3.516000e+00,-2.744100e+01,2.636700e+01,-5.416990e+02,-2.066410e+02,-2.659180e+02,-4.395510e+02,-5.986300e+01,1.227540e+02,4.482400e+01,2.930000e+00
1.062500e+02,-4.539060e+02,2.705100e+01,3.125000e+01,2.470700e+01,-3.134800e+01,-1.035200e+01,-1.742190e+02,6.836000e+00,-4.062500e+01,-5.664000e+00,-5.652340e+02,-2.098630e+02,-2.804690e+02,-4.558590e+02,-7.656300e+01,1.122070e+02,3.554700e+01,-6.055000e+00
1.308590e+02,-4.159180e+02,4.082000e+01,6.240200e+01,4.189500e+01,-4.843800e+01,1.923800e+01,-1.476560e+02,2.763700e+01,-1.718700e+01,3.750000e+01,-5.207030e+02,-1.959960e+02,-2.307620e+02,-4.127930e+02,-4.287100e+01,1.348630e+02,6.054700e+01,2.363300e+01
1.574220e+02,-3.840820e+02,6.298800e+01,8.603500e+01,5.966800e+01,-6.386700e+01,3.945300e+01,-1.198240e+02,3.574200e+01,4.199000e+00,6.884800e+01,-5.012700e+02,-1.892580e+02,-2.108400e+02,-3.817380e+02,-1.972700e+01,1.550780e+02,8.408200e+01,4.658200e+01
1.706050e+02,-3.645510e+02,7.568400e+01,1.017580e+02,6.103500e+01,-6.386700e+01,3.212900e+01,-1.032230e+02,2.031300e+01,1.611300e+01,8.945300e+01,-4.878910e+02,-2.077150e+02,-2.252930e+02,-3.846680e+02,-7.031000e+00,1.646480e+02,9.443400e+01,5.400400e+01
1.775390e+02,-3.477540e+02,8.427700e+01,1.228520e+02,6.386700e+01,-6.718800e+01,3.623000e+01,-8.369100e+01,2.109400e+01,3.574200e+01,9.746100e+01,-4.625000e+02,-2.209960e+02,-1.813480e+02,-3.707030e+02,1.767600e+01,1.733400e+02,1.051760e+02,6.914100e+01
1.863280e+02,-3.364260e+02,9.785200e+01,1.277340e+02,7.265600e+01,-7.783200e+01,4.716800e+01,-7.578100e+01,3.144500e+01,4.492200e+01,1.014650e+02,-4.332030e+02,-2.237300e+02,-1.520510e+02,-3.629880e+02,2.763700e+01,1.796880e+02,1.130860e+02,7.783200e+01
1.636720e+02,-3.682620e+02,7.802700e+01,9.560500e+01,5.810500e+01,-6.357400e+01,3.144500e+01,-1.001950e+02,2.255900e+01,2.148400e+01,6.953100e+01,-4.617190e+02,-2.190430e+02,-1.855470e+02,-3.879880e+02,-1.953000e+00,1.572270e+02,9.013700e+01,5.410200e+01
1.437500e+02,-3.928710e+02,5.488300e+01,7.597700e+01,3.994100e+01,-4.365200e+01,7.422000e+00,-1.188480e+02,1.025400e+01,5.664000e+00,4.619100e+01,-4.855470e+02,-2.171870e+02,-2.097660e+02,-4.163090e+02,-1.757800e+01,1.405270e+02,6.767600e+01,3.388700e+01
1.296870e+02,-4.137700e+02,4.257800e+01,5.742200e+01,3.564500e+01,-3.828100e+01,-2.637000e+00,-1.341800e+02,8.398000e+00,-5.762000e+00,2.890600e+01,-5.086910e+02,-2.262700e+02,-2.316410e+02,-4.341800e+02,-3.437500e+01,1.300780e+02,5.459000e+01,2.128900e+01
1.235350e+02,-4.322270e+02,4.707000e+01,3.945300e+01,3.330100e+01,-3.535200e+01,-4.395000e+00,-1.471680e+02,1.201200e+01,-1.767600e+01,2.519500e+01,-5.270510e+02,-2.141600e+02,-2.452150e+02,-4.421880e+02,-5.195300e+01,1.240230e+02,4.628900e+01,1.113300e+01
1.163090e+02,-4.434570e+02,2.617200e+01,2.802700e+01,2.246100e+01,-2.763700e+01,-1.855000e+00,-1.499020e+02,2.158200e+01,-1.728500e+01,4.111300e+01,-5.334960e+02,-1.913090e+02,-2.501950e+02,-4.401370e+02,-5.410200e+01,1.173830e+02,3.867200e+01,1.093700e+01
1.321290e+02,-4.175780e+02,3.769500e+01,5.283200e+01,3.750000e+01,-4.560500e+01,1.669900e+01,-1.323240e+02,3.007800e+01,2.930000e+00,6.396500e+01,-5.115230e+02,-1.895510e+02,-2.313480e+02,-4.130860e+02,-3.330100e+01,1.330080e+02,5.712900e+01,3.261700e+01
1.517580e+02,-3.916990e+02,6.103500e+01,7.890600e+01,5.673800e+01,-6.093700e+01,3.759800e+01,-1.092770e+02,3.857400e+01,2.002000e+01,8.515600e+01,-4.989260e+02,-1.856450e+02,-2.161130e+02,-3.834960e+02,-1.015600e+01,1.501950e+02,7.988300e+01,5.459000e+01
1.644530e+02,-3.713870e+02,7.470700e+01,1.040040e+02,6.123000e+01,-6.396500e+01,4.267600e+01,-9.082000e+01,4.033200e+01,3.349600e+01,9.052700e+01,-4.893550e+02,-2.033200e+02,-2.152340e+02,-3.816410e+02,6.836000e+00,1.609380e+02,9.209000e+01,6.621100e+01
1.682620e+02,-3.543950e+02,8.066400e+01,1.273440e+02,5.986300e+01,-6.367200e+01,4.560500e+01,-7.460900e+01,4.218800e+01,4.218800e+01,8.564500e+01,-4.819340e+02,-2.272460e+02,-1.880860e+02,-3.797850e+02,1.835900e+01,1.665040e+02,9.941400e+01,7.880900e+01
1.809570e+02,-3.409180e+02,1.024410e+02,1.158200e+02,6.748000e+01,-7.285200e+01,5.341800e+01,-5.869100e+01,4.668000e+01,5.175800e+01,8.652300e+01,-4.349610e+02,-2.362300e+02,-1.564450e+02,-3.681640e+02,2.919900e+01,1.712890e+02,1.066410e+02,8.769500e+01
1.621090e+02,-3.691410e+02,8.271500e+01,8.994100e+01,5.273400e+01,-5.849600e+01,3.007800e+01,-8.632800e+01,2.744100e+01,3.486300e+01,7.656300e+01,-4.648440e+02,-2.320310e+02,-1.815430e+02,-3.875000e+02,3.027000e+00,1.507810e+02,8.310500e+01,5.947300e+01
1.383790e+02,-3.928710e+02,4.960900e+01,7.421900e+01,3.603500e+01,-3.974600e+01,1.191400e+01,-1.063480e+02,2.099600e+01,2.402300e+01,5.830100e+01,-4.854490e+02,-2.211910e+02,-2.007810e+02,-4.068360e+02,-1.025400e+01,1.325200e+02,6.025400e+01,3.974600e+01
1.307620e+02,-4.077150e+02,3.359400e+01,6.123000e+01,2.910200e+01,-3.027300e+01,7.715000e+00,-1.161130e+02,2.714800e+01,1.689500e+01,5.039100e+01,-4.925780e+02,-2.093750e+02,-2.155270e+02,-4.162110e+02,-1.464800e+01,1.268550e+02,4.921900e+01,3.173800e+01
1.273440e+02,-4.274410e+02,3.437500e+01,3.935500e+01,3.046900e+01,-3.242200e+01,6.836000e+00,-1.368160e+02,2.744100e+01,-1.367000e+00,4.570300e+01,-5.262700e+02,-1.962890e+02,-2.481450e+02,-4.188480e+02,-3.720700e+01,1.218750e+02,4.140600e+01,1.875000e+01
1.089840e+02,-4.492190e+02,1.933600e+01,2.627000e+01,2.373000e+01,-2.890600e+01,1.465000e+00,-1.517580e+02,2.656300e+01,-1.464800e+01,3.652300e+01,-5.676760e+02,-1.862300e+02,-2.720700e+02,-4.239260e+02,-5.898400e+01,1.094730e+02,2.910200e+01,7.227000e+00
1.231450e+02,-4.232420e+02,3.828100e+01,4.453100e+01,3.984400e+01,-4.502000e+01,2.304700e+01,-1.279300e+02,4.043000e+01,7.422000e+00,5.468800e+01,-5.209960e+02,-1.814450e+02,-2.336910e+02,-3.933590e+02,-3.125000e+01,1.257810e+02,4.960900e+01,3.125000e+01
1.492190e+02,-3.896480e+02,6.748000e+01,6.787100e+01,5.888700e+01,-6.298800e+01,4.218800e+01,-1.050780e+02,4.589800e+01,2.578100e+01,7.822300e+01,-4.843750e+02,-1.871090e+02,-2.088870e+02,-3.704100e+02,-6.934000e+00,1.461910e+02,7.334000e+01,5.136700e+01
1.608400e+02,-3.729490e+02,8.027300e+01,8.398400e+01,6.474600e+01,-6.845700e+01,5.195300e+01,-9.013700e+01,5.068400e+01,3.789100e+01,8.886700e+01,-4.787110e+02,-2.035160e+02,-200,-3.700200e+02,6.055000e+00,1.552730e+02,8.632800e+01,6.347700e+01
1.669920e+02,-3.559570e+02,8.857400e+01,1.033200e+02,6.572300e+01,-6.914100e+01,5.429700e+01,-7.480500e+01,4.873000e+01,4.824200e+01,8.544900e+01,-4.579100e+02,-2.223630e+02,-1.788090e+02,-3.767580e+02,2.617200e+01,1.621090e+02,9.570300e+01,7.412100e+01
1.778320e+02,-3.395510e+02,1.018550e+02,1.203120e+02,7.021500e+01,-7.460900e+01,5.185500e+01,-6.923800e+01,3.486300e+01,5.127000e+01,8.925800e+01,-4.517580e+02,-2.380860e+02,-1.721680e+02,-3.751950e+02,3.173800e+01,1.705080e+02,1.030270e+02,7.568400e+01
1.578120e+02,-3.677730e+02,7.529300e+01,9.697300e+01,5.322300e+01,-5.957000e+01,3.105500e+01,-9.619100e+01,2.050800e+01,2.441400e+01,7.451200e+01,-4.859370e+02,-2.430660e+02,-2.082030e+02,-3.936520e+02,-3.613000e+00,1.497070e+02,7.978500e+01,4.863300e+01
1.301760e+02,-4.006840e+02,5.605500e+01,6.669900e+01,3.906200e+01,-4.345700e+01,1.689500e+01,-1.200200e+02,1.757800e+01,2.441000e+00,3.886700e+01,-5.099610e+02,-2.406250e+02,-2.282230e+02,-4.120120e+02,-2.998000e+01,1.283200e+02,5.800800e+01,2.900400e+01
1.179690e+02,-4.205080e+02,5.664100e+01,4.453100e+01,3.759800e+01,-4.023400e+01,1.074200e+01,-1.354490e+02,1.543000e+01,-1.035200e+01,1.611300e+01,-5.175780e+02,-2.292970e+02,-2.344730e+02,-4.209960e+02,-4.599600e+01,1.204100e+02,4.853500e+01,1.787100e+01
1.197270e+02,-4.304690e+02,3.554700e+01,3.505900e+01,3.476600e+01,-3.632800e+01,5.469000e+00,-1.470700e+02,1.181600e+01,-2.148400e+01,3.027300e+01,-5.333980e+02,-2.025390e+02,-2.463870e+02,-4.207030e+02,-6.318400e+01,1.198240e+02,4.189500e+01,6.934000e+00
1.001950e+02,-4.572270e+02,2.832000e+01,1.103500e+01,2.910200e+01,-3.466800e+01,-4.688000e+00,-1.678710e+02,4.199000e+00,-4.179700e+01,5.371000e+00,-5.583010e+02,-1.957030e+02,-2.708980e+02,-4.391600e+02,-8.017600e+01,1.049800e+02,2.832000e+01,-8.691000e+00
1.149410e+02,-4.318360e+02,2.959000e+01,3.584000e+01,3.867200e+01,-4.599600e+01,1.992200e+01,-1.440430e+02,2.460900e+01,-1.738300e+01,3.740200e+01,-5.340820e+02,-1.906250e+02,-2.463870e+02,-4.141600e+02,-4.404300e+01,1.214840e+02,4.882800e+01,1.953100e+01
1.311520e+02,-4.070310e+02,4.765600e+01,5.908200e+01,5.849600e+01,-6.308600e+01,4.287100e+01,-1.286130e+02,3.535200e+01,-3.125000e+00,6.425800e+01,-5.172850e+02,-2.101560e+02,-2.306640e+02,-3.864260e+02,-2.978500e+01,1.370120e+02,7.138700e+01,4.111300e+01
1.520510e+02,-3.825200e+02,6.748000e+01,7.880900e+01,6.455100e+01,-6.669900e+01,4.873000e+01,-1.076170e+02,3.300800e+01,1.132800e+01,9.033200e+01,-4.962890e+02,-2.122070e+02,-2.129880e+02,-3.751950e+02,-1.689500e+01,1.508790e+02,8.779300e+01,5.546900e+01
1.637700e+02,-3.595700e+02,7.919900e+01,1.041020e+02,5.839800e+01,-6.084000e+01,4.238300e+01,-8.574200e+01,2.578100e+01,3.310500e+01,9.355500e+01,-4.687500e+02,-2.219730e+02,-1.935550e+02,-3.833980e+02,2.441000e+00,1.617190e+02,9.658200e+01,6.777300e+01
1.696290e+02,-3.437500e+02,9.277300e+01,1.196290e+02,6.308600e+01,-6.738300e+01,4.228500e+01,-7.607400e+01,1.992200e+01,4.121100e+01,9.990200e+01,-4.695310e+02,-2.386720e+02,-1.929690e+02,-3.865230e+02,8.496000e+00,1.694340e+02,1.049800e+02,7.470700e+01
1.561520e+02,-3.624020e+02,7.236300e+01,1.020510e+02,4.941400e+01,-5.468800e+01,2.460900e+01,-9.589800e+01,1.250000e+01,2.207000e+01,7.207000e+01,-4.846680e+02,-2.405270e+02,-2.055660e+02,-4.124020e+02,-9.473000e+00,1.546870e+02,8.632800e+01,5.400400e+01
1.305660e+02,-3.969730e+02,4.267600e+01,7.519500e+01,3.271500e+01,-3.652300e+01,1.005900e+01,-1.158200e+02,1.084000e+01,6.840000e-01,4.834000e+01,-5.182620e+02,-2.314450e+02,-225,-4.324220e+02,-3.125000e+01,1.338870e+02,6.435500e+01,3.466800e+01
1.160160e+02,-4.196290e+02,3.027300e+01,4.619100e+01,2.968800e+01,-3.095700e+01,9.570000e+00,-1.251950e+02,2.041000e+01,-5.371000e+00,2.880900e+01,-5.137700e+02,-2.181640e+02,-2.257810e+02,-4.298830e+02,-3.769500e+01,1.225590e+02,5.283200e+01,2.753900e+01
1.119140e+02,-4.354490e+02,2.480500e+01,3.007800e+01,2.851600e+01,-3.017600e+01,3.809000e+00,-1.436520e+02,2.002000e+01,-2.197300e+01,2.548800e+01,-5.363280e+02,-2.177730e+02,-2.470700e+02,-4.401370e+02,-5.878900e+01,1.175780e+02,4.492200e+01,1.455100e+01
100,-4.567380e+02,1.523400e+01,1.074200e+01,2.128900e+01,-2.548800e+01,-5.469000e+00,-1.657230e+02,1.416000e+01,-4.209000e+01,1.582000e+01,-5.680660e+02,-2.125000e+02,-2.705080e+02,-4.517580e+02,-8.076200e+01,1.059570e+02,3.144500e+01,-5.860000e-01
1.161130e+02,-4.302730e+02,3.164100e+01,3.300800e+01,3.418000e+01,-4.111300e+01,1.445300e+01,-1.451170e+02,2.617200e+01,-2.294900e+01,2.714800e+01,-5.321290e+02,-2.088870e+02,-2.428710e+02,-4.268550e+02,-6.181600e+01,1.225590e+02,5.107400e+01,2.246100e+01
1.400390e+02,-4.004880e+02,5.634800e+01,5.546900e+01,5.341800e+01,-5.791000e+01,3.261700e+01,-1.206050e+02,3.173800e+01,1.270000e+00,5.449200e+01,-5.069340e+02,-2.033200e+02,-2.183590e+02,-4.034180e+02,-3.085900e+01,1.428710e+02,7.636700e+01,4.453100e+01
1.553710e+02,-3.771480e+02,7.060500e+01,7.822300e+01,6.103500e+01,-6.347700e+01,4.140600e+01,-100,3.183600e+01,1.884800e+01,6.992200e+01,-4.912110e+02,-2.157230e+02,-2.076170e+02,-3.914060e+02,-1.093700e+01,1.554690e+02,9.179700e+01,5.859400e+01
1.583010e+02,-3.623050e+02,7.441400e+01,1.018550e+02,5.898400e+01,-6.162100e+01,3.681600e+01,-8.466800e+01,2.265600e+01,2.959000e+01,7.304700e+01,-4.884770e+02,-2.356450e+02,-2.012700e+02,-3.875980e+02,4.785000e+00,1.596680e+02,9.824200e+01,6.689500e+01
1.673830e+02,-3.451170e+02,9.443400e+01,1.291020e+02,6.308600e+01,-6.865200e+01,3.544900e+01,-7.978500e+01,1.250000e+01,3.320300e+01,7.871100e+01,-4.775390e+02,-2.494140e+02,-1.834960e+02,-3.785160e+02,1.162100e+01,1.698240e+02,1.079100e+02,7.255900e+01
1.579100e+02,-3.670900e+02,8.867200e+01,8.837900e+01,5.712900e+01,-6.445300e+01,2.666000e+01,-9.834000e+01,1.162100e+01,1.748000e+01,6.416000e+01,-4.768550e+02,-2.406250e+02,-1.978520e+02,-3.895510e+02,-1.005900e+01,1.538090e+02,9.101600e+01,5.390600e+01
1.315430e+02,-3.986330e+02,4.296900e+01,5.488300e+01,4.082000e+01,-4.609400e+01,1.738300e+01,-1.146480e+02,1.464800e+01,4.785000e+00,4.677700e+01,-4.938480e+02,-2.285160e+02,-2.162110e+02,-4.061520e+02,-2.783200e+01,1.306640e+02,6.787100e+01,3.720700e+01
1.180660e+02,-4.183590e+02,3.085900e+01,4.462900e+01,3.232400e+01,-3.554700e+01,2.246000e+00,-1.333010e+02,4.199000e+00,-1.074200e+01,3.623000e+01,-5.137700e+02,-2.199220e+02,-2.336910e+02,-4.279300e+02,-4.199200e+01,1.226560e+02,5.439500e+01,2.177700e+01
1.141600e+02,-4.333980e+02,2.919900e+01,3.632800e+01,3.193400e+01,-3.447300e+01,-3.418000e+00,-1.526370e+02,1.270000e+00,-3.085900e+01,3.515600e+01,-5.482420e+02,-2.141600e+02,-2.680660e+02,-4.405270e+02,-7.441400e+01,1.208010e+02,4.863300e+01,8.398000e+00
9.716800e+01,-4.590820e+02,1.728500e+01,1.269500e+01,2.480500e+01,-3.115200e+01,-7.910000e+00,-1.721680e+02,3.516000e+00,-4.785200e+01,1.289100e+01,-5.911130e+02,-2.070310e+02,-2.899410e+02,-4.546880e+02,-9.462900e+01,1.069340e+02,3.476600e+01,-4.395000e+00
1.167970e+02,-4.291020e+02,3.623000e+01,3.418000e+01,3.867200e+01,-4.599600e+01,9.863000e+00,-1.477540e+02,1.865200e+01,-2.353500e+01,2.148400e+01,-5.351560e+02,-2.154300e+02,-2.380860e+02,-4.416020e+02,-5.087900e+01,1.268550e+02,5.517600e+01,1.982400e+01
1.392580e+02,-4.007810e+02,6.445300e+01,5.332000e+01,6.162100e+01,-6.562500e+01,2.783200e+01,-1.262700e+02,2.451200e+01,-5.957000e+00,1.201200e+01,-5.010740e+02,-2.513670e+02,-2.172850e+02,-4.333980e+02,-2.773400e+01,1.450200e+02,7.841800e+01,3.974600e+01
1.591800e+02,-3.731450e+02,7.822300e+01,7.949200e+01,6.650400e+01,-6.855500e+01,4.199200e+01,-1.059570e+02,3.212900e+01,1.113300e+01,6.093700e+01,-4.824220e+02,-2.275390e+02,-2.053710e+02,-4.134770e+02,-1.513700e+01,1.607420e+02,9.668000e+01,5.820300e+01
1.687500e+02,-3.518550e+02,8.388700e+01,1.072270e+02,5.966800e+01,-6.230500e+01,4.101600e+01,-9.218800e+01,2.978500e+01,2.558600e+01,8.554700e+01,-4.653320e+02,-2.291990e+02,-1.886720e+02,-4.024410e+02,-1.270000e+00,1.700200e+02,1.052730e+02,6.943400e+01
1.827150e+02,-3.314450e+02,1.069340e+02,1.299800e+02,7.031200e+01,-7.373000e+01,4.638700e+01,-8.125000e+01,2.841800e+01,3.496100e+01,8.740200e+01,-4.552730e+02,-2.504880e+02,-1.743160e+02,-3.880860e+02,1.152300e+01,1.828120e+02,1.180660e+02,7.939500e+01
1.642580e+02,-3.576170e+02,8.584000e+01,9.687500e+01,6.171900e+01,-6.748000e+01,3.544900e+01,-9.902300e+01,2.216800e+01,1.503900e+01,8.173800e+01,-4.765630e+02,-2.401370e+02,-2.016600e+02,-3.997070e+02,-1.054700e+01,1.619140e+02,9.794900e+01,5.966800e+01
1.398440e+02,-3.882810e+02,5.957000e+01,6.816400e+01,4.726600e+01,-5.195300e+01,2.109400e+01,-1.177730e+02,1.728500e+01,-2.246000e+00,5.576200e+01,-5.029300e+02,-2.263670e+02,-2.227540e+02,-4.158200e+02,-2.656300e+01,1.405270e+02,75,4.023400e+01
1.315430e+02,-4.032230e+02,5.263700e+01,5.742200e+01,3.584000e+01,-3.896500e+01,7.813000e+00,-1.312500e+02,1.367200e+01,-1.240200e+01,3.222700e+01,-5.006840e+02,-2.387700e+02,-2.259770e+02,-4.373050e+02,-3.925800e+01,1.337890e+02,6.171900e+01,2.744100e+01
1.254880e+02,-4.218750e+02,5.712900e+01,3.994100e+01,4.072300e+01,-4.150400e+01,1.191400e+01,-1.469730e+02,2.226600e+01,-2.421900e+01,2.402300e+01,-5.252930e+02,-2.259770e+02,-2.458010e+02,-4.354490e+02,-5.371100e+01,1.290040e+02,5.771500e+01,1.953100e+01
1.087890e+02,-4.475590e+02,2.275400e+01,1.640600e+01,3.164100e+01,-3.535200e+01,8.789000e+00,-1.673830e+02,2.509800e+01,-4.140600e+01,9.863000e+00,-5.577150e+02,-2.099610e+02,-2.773440e+02,-4.404300e+02,-7.441400e+01,1.132810e+02,4.091800e+01,6.348000e+00
1.169920e+02,-4.311520e+02,3.232400e+01,3.671900e+01,3.847700e+01,-4.619100e+01,1.972700e+01,-1.460940e+02,3.076200e+01,-2.002000e+01,4.228500e+01,-5.489260e+02,-2.017580e+02,-2.556640e+02,-4.249020e+02,-4.951200e+01,1.241210e+02,5.478500e+01,2.558600e+01
1.495120e+02,-3.908200e+02,6.513700e+01,6.035200e+01,5.263700e+01,-5.820300e+01,2.841800e+01,-1.152340e+02,2.441400e+01,7.031000e+00,8.437500e+01,-5.012700e+02,-1.892580e+02,-2.272460e+02,-3.973630e+02,-1.543000e+01,1.491210e+02,7.968800e+01,4.716800e+01
1.656250e+02,-3.694340e+02,9.531200e+01,8.193400e+01,6.718800e+01,-6.884800e+01,3.720700e+01,-1.008790e+02,2.382800e+01,1.435500e+01,8.437500e+01,-4.937500e+02,-2.052730e+02,-2.153320e+02,-3.872070e+02,-6.934000e+00,1.615230e+02,9.482400e+01,5.800800e+01
