FP1,FP2,F3,F4,C3,C4,P3,P4,O1,O2,F7, F8,T3,T4,T5,T6,FZ,CZ,PZ
1.466800e+02,-6.938480e+02,3.847700e+01,8.984000e+00,5.380900e+01,-5.712900e+01,-2.724600e+01,-1.769530e+02,3.632800e+01,-9.619100e+01,8.945300e+01,-4.243160e+02,-9.140600e+01,-3.203130e+02,-9.511700e+01,-3.808600e+01,1.312500e+02,-1.899410e+02,4.004000e+00
1.579100e+02,-6.733400e+02,4.560500e+01,2.705100e+01,5.732400e+01,-6.464800e+01,-1.738300e+01,-1.567380e+02,4.453100e+01,-7.314500e+01,1.048830e+02,-4.007810e+02,-1.040040e+02,-2.985350e+02,-8.818400e+01,-9.570000e+00,1.454100e+02,-1.745120e+02,2.353500e+01
1.772460e+02,-6.454100e+02,6.972700e+01,5.459000e+01,7.480500e+01,-8.017600e+01,9.770000e-01,-1.362300e+02,5.390600e+01,-5.556600e+01,1.049800e+02,-3.814450e+02,-1.221680e+02,-2.794920e+02,-7.998000e+01,7.520000e+00,1.640620e+02,-1.509770e+02,4.511700e+01
1.862300e+02,-6.315430e+02,8.828100e+01,7.002000e+01,9.121100e+01,-9.355500e+01,7.813000e+00,-1.297850e+02,4.834000e+01,-5.488300e+01,9.355500e+01,-3.836910e+02,-1.435550e+02,-2.824220e+02,-7.412100e+01,2.637000e+00,1.704100e+02,-1.368160e+02,5.205100e+01
2.009770e+02,-6.041020e+02,1.035160e+02,1.017580e+02,8.681600e+01,-8.906300e+01,1.533200e+01,-1.125000e+02,5.205100e+01,-3.740200e+01,1.536130e+02,-3.469730e+02,-1.094730e+02,-2.471680e+02,-4.941400e+01,2.617200e+01,1.856450e+02,-1.242190e+02,6.748000e+01
2.154300e+02,-5.755860e+02,1.115230e+02,1.314450e+02,9.150400e+01,-9.511700e+01,2.968800e+01,-8.564500e+01,6.289100e+01,-1.377000e+01,1.717770e+02,-3.263670e+02,-1.242190e+02,-2.398440e+02,-2.998000e+01,5.683600e+01,2.014650e+02,-1.068360e+02,8.916000e+01
1.970700e+02,-6.018550e+02,8.808600e+01,1.017580e+02,7.695300e+01,-8.193400e+01,1.015600e+01,-9.970700e+01,4.736300e+01,-3.183600e+01,1.392580e+02,-3.698240e+02,-1.367190e+02,-2.739260e+02,-5.351600e+01,3.252000e+01,1.809570e+02,-1.259770e+02,6.757800e+01
1.792970e+02,-6.296880e+02,7.607400e+01,8.281200e+01,6.455100e+01,-6.982400e+01,-1.025400e+01,-1.307620e+02,3.437500e+01,-5.683600e+01,1.050780e+02,-3.868160e+02,-1.284180e+02,-2.706050e+02,-7.314500e+01,7.813000e+00,1.653320e+02,-1.483400e+02,4.121100e+01
1.623050e+02,-6.570310e+02,6.845700e+01,5.869100e+01,5.517600e+01,-5.908200e+01,-2.529300e+01,-1.514650e+02,2.753900e+01,-7.314500e+01,8.525400e+01,-3.952150e+02,-1.312500e+02,-2.934570e+02,-9.384800e+01,-9.180000e+00,1.520510e+02,-1.646480e+02,2.373000e+01
1.550780e+02,-6.736330e+02,5.224600e+01,4.453100e+01,5.556600e+01,-5.820300e+01,-2.460900e+01,-1.629880e+02,3.349600e+01,-8.437500e+01,8.613300e+01,-4.138670e+02,-1.237300e+02,-3.119140e+02,-9.990200e+01,-3.046900e+01,1.460940e+02,-1.699220e+02,1.640600e+01
1.393550e+02,-7.010740e+02,4.892600e+01,5.176000e+00,5.302700e+01,-5.615200e+01,-3.173800e+01,-1.877930e+02,3.349600e+01,-1.061520e+02,6.035200e+01,-4.259770e+02,-1.132810e+02,-3.316410e+02,-1.217770e+02,-6.201200e+01,1.278320e+02,-1.858400e+02,-1.758000e+00
1.487300e+02,-6.851560e+02,3.808600e+01,2.021500e+01,5.996100e+01,-6.591800e+01,-1.777300e+01,-1.706050e+02,3.974600e+01,-9.433600e+01,8.710900e+01,-4.150390e+02,-1.049800e+02,-3.267580e+02,-1.066410e+02,-3.867200e+01,1.375980e+02,-1.736330e+02,1.640600e+01
1.732420e+02,-6.502930e+02,5.625000e+01,5.605500e+01,6.972700e+01,-7.509800e+01,-1.005900e+01,-1.377930e+02,3.398400e+01,-7.207000e+01,1.088870e+02,-3.916990e+02,-1.124020e+02,-2.939450e+02,-8.593700e+01,-2.930000e-01,1.600590e+02,-1.495120e+02,3.750000e+01
2.038090e+02,-6.146480e+02,8.750000e+01,8.564500e+01,8.173800e+01,-8.447300e+01,9.668000e+00,-1.219730e+02,4.589800e+01,-5.175800e+01,1.341800e+02,-3.651370e+02,-1.023440e+02,-2.558590e+02,-6.289100e+01,2.558600e+01,1.833010e+02,-1.254880e+02,5.820300e+01
2.006840e+02,-6.091800e+02,9.511700e+01,9.726600e+01,8.359400e+01,-8.701200e+01,1.669900e+01,-1.186520e+02,5.048800e+01,-4.052700e+01,1.318360e+02,-3.672850e+02,-1.188480e+02,-2.558590e+02,-5.761700e+01,3.193400e+01,1.827150e+02,-1.200200e+02,6.816400e+01
2.126950e+02,-5.871090e+02,1.208980e+02,1.133790e+02,9.589800e+01,-9.951200e+01,2.851600e+01,-9.726600e+01,5.761700e+01,-2.002000e+01,1.406250e+02,-3.327150e+02,-1.477540e+02,-2.356450e+02,-4.785200e+01,50,1.948240e+02,-1.030270e+02,8.681600e+01
2.031250e+02,-6.022460e+02,9.716800e+01,9.794900e+01,8.173800e+01,-8.789100e+01,1.484400e+01,-1.124020e+02,5.009800e+01,-3.720700e+01,1.431640e+02,-3.499020e+02,-1.336910e+02,-2.523440e+02,-5.820300e+01,2.402300e+01,1.809570e+02,-1.195310e+02,6.865200e+01
1.861330e+02,-6.303710e+02,7.304700e+01,7.460900e+01,6.142600e+01,-6.718800e+01,-9.473000e+00,-1.323240e+02,3.750000e+01,-5.869100e+01,1.007810e+02,-3.736330e+02,-1.304690e+02,-2.790040e+02,-8.271500e+01,5.371000e+00,1.632810e+02,-1.431640e+02,4.443400e+01
1.636720e+02,-6.604490e+02,7.304700e+01,5.097700e+01,5.117200e+01,-5.449200e+01,-3.173800e+01,-1.565430e+02,2.236300e+01,-8.252000e+01,6.621100e+01,-4.055660e+02,-1.285160e+02,-3.224610e+02,-1.073240e+02,-1.679700e+01,1.491210e+02,-1.625000e+02,2.138700e+01
1.675780e+02,-6.632810e+02,5.166000e+01,4.599600e+01,5.371100e+01,-5.546900e+01,-2.812500e+01,-1.643550e+02,2.988300e+01,-8.447300e+01,1.075200e+02,-4.084960e+02,-1.028320e+02,-3.152340e+02,-9.502000e+01,-1.962900e+01,1.523440e+02,-1.638670e+02,1.757800e+01
1.509770e+02,-6.862300e+02,2.373000e+01,2.558600e+01,4.267600e+01,-4.775400e+01,-3.867200e+01,-1.832030e+02,2.910200e+01,-9.628900e+01,9.843800e+01,-4.240230e+02,-9.394500e+01,-3.257810e+02,-1.042970e+02,-3.779300e+01,1.373050e+02,-1.795900e+02,2.637000e+00
1.543950e+02,-6.792970e+02,4.003900e+01,3.212900e+01,5.166000e+01,-6.015600e+01,-2.773400e+01,-1.748050e+02,3.857400e+01,-8.642600e+01,9.238300e+01,-4.166990e+02,-9.160200e+01,-3.208010e+02,-9.443400e+01,-2.597700e+01,1.442380e+02,-1.692380e+02,1.513700e+01
1.742190e+02,-6.528320e+02,7.451200e+01,5.390600e+01,7.099600e+01,-7.714800e+01,-5.859000e+00,-1.569340e+02,5.127000e+01,-6.943400e+01,1.059570e+02,-3.997070e+02,-1.020510e+02,-3.032230e+02,-7.246100e+01,-5.957000e+00,1.629880e+02,-1.452150e+02,3.916000e+01
1.950200e+02,-6.263670e+02,9.775400e+01,8.173800e+01,8.496100e+01,-8.906300e+01,7.715000e+00,-1.410160e+02,5.146500e+01,-5.839800e+01,1.450200e+02,-3.780270e+02,-9.834000e+01,-2.813480e+02,-5.322300e+01,6.934000e+00,1.806640e+02,-1.259770e+02,5.371100e+01
2.050780e+02,-6.047850e+02,9.726600e+01,1.063480e+02,7.822300e+01,-8.212900e+01,8.790000e-01,-1.208980e+02,3.886700e+01,-4.267600e+01,1.449220e+02,-3.595700e+02,-1.250980e+02,-2.593750e+02,-5.419900e+01,3.125000e+01,1.889650e+02,-1.190430e+02,6.162100e+01
2.194340e+02,-5.774410e+02,1.117190e+02,1.259770e+02,8.720700e+01,-9.052700e+01,1.435500e+01,-9.443400e+01,4.609400e+01,-1.835900e+01,1.555660e+02,-3.245120e+02,-1.347660e+02,-2.351560e+02,-3.359400e+01,5.947300e+01,2.023440e+02,-1.027340e+02,8.271500e+01
2.030270e+02,-5.985350e+02,9.794900e+01,1.124020e+02,7.451200e+01,-8.046900e+01,-8.790000e-01,-1.110350e+02,3.574200e+01,-3.515600e+01,1.390620e+02,-3.592770e+02,-1.358400e+02,-2.590820e+02,-5.283200e+01,3.662100e+01,1.866210e+02,-1.197270e+02,6.289100e+01
1.838870e+02,-6.285160e+02,7.890600e+01,8.652300e+01,5.947300e+01,-6.435500e+01,-1.757800e+01,-1.304690e+02,3.173800e+01,-5.273400e+01,1.227540e+02,-3.949220e+02,-1.303710e+02,-2.725590e+02,-8.300800e+01,1.806600e+01,1.684570e+02,-1.414060e+02,4.169900e+01
1.669920e+02,-6.518550e+02,6.191400e+01,5.605500e+01,5.009800e+01,-5.253900e+01,-2.558600e+01,-1.441410e+02,3.466800e+01,-6.220700e+01,1.028320e+02,-3.826170e+02,-1.173830e+02,-2.853520e+02,-9.111300e+01,1.855000e+00,1.528320e+02,-1.587890e+02,2.949200e+01
1.602540e+02,-6.694340e+02,5.332000e+01,3.974600e+01,4.746100e+01,-4.931600e+01,-2.714800e+01,-1.566410e+02,3.466800e+01,-7.529300e+01,1.011720e+02,-4.020510e+02,-1.012700e+02,-3.204100e+02,-9.287100e+01,-2.158200e+01,1.481450e+02,-1.655270e+02,1.875000e+01
1.481450e+02,-6.955080e+02,4.062500e+01,1.191400e+01,3.925800e+01,-4.248000e+01,-3.623000e+01,-1.772460e+02,3.017600e+01,-9.687500e+01,8.925800e+01,-4.335940e+02,-8.476600e+01,-3.305660e+02,-1.091800e+02,-3.916000e+01,1.347660e+02,-1.821290e+02,-6.840000e-01
1.578120e+02,-6.775390e+02,5.625000e+01,3.173800e+01,5.527300e+01,-6.093700e+01,-2.011700e+01,-1.702150e+02,4.248000e+01,-8.554700e+01,7.334000e+01,-4.105470e+02,-1.055660e+02,-3.088870e+02,-9.873000e+01,-2.392600e+01,1.461910e+02,-1.696290e+02,1.318400e+01
1.733400e+02,-6.520510e+02,8.271500e+01,6.826200e+01,7.236300e+01,-7.744100e+01,-1.660000e+00,-1.504880e+02,4.980500e+01,-6.914100e+01,8.593700e+01,-4.133790e+02,-1.073240e+02,-2.996090e+02,-7.509800e+01,-1.074200e+01,1.648440e+02,-1.465820e+02,3.544900e+01
2.083010e+02,-6.124020e+02,1.028320e+02,9.179700e+01,7.880900e+01,-8.232400e+01,1.982400e+01,-1.139650e+02,6.543000e+01,-3.466800e+01,1.668950e+02,-3.569340e+02,-7.675800e+01,-2.531250e+02,-4.248000e+01,2.265600e+01,1.894530e+02,-1.215820e+02,6.503900e+01
2.119140e+02,-6.002930e+02,1.017580e+02,9.130900e+01,7.783200e+01,-8.203100e+01,2.285200e+01,-9.765600e+01,6.377000e+01,-1.943400e+01,1.633790e+02,-3.332030e+02,-9.433600e+01,-2.376950e+02,-3.613300e+01,4.570300e+01,1.890620e+02,-1.170900e+02,7.529300e+01
2.182620e+02,-5.827150e+02,1.233400e+02,1.122070e+02,9.209000e+01,-9.648400e+01,3.164100e+01,-8.418000e+01,6.162100e+01,-9.082000e+00,1.491210e+02,-3.218750e+02,-1.111330e+02,-2.240230e+02,-2.314500e+01,6.503900e+01,1.979490e+02,-1.036130e+02,8.808600e+01
2.115230e+02,-5.951170e+02,1.144530e+02,1.042970e+02,7.871100e+01,-8.300800e+01,2.226600e+01,-9.511700e+01,5.732400e+01,-2.119100e+01,1.520510e+02,-3.468750e+02,-1.083010e+02,-2.446290e+02,-3.222700e+01,4.560500e+01,1.885740e+02,-1.165040e+02,7.539100e+01
1.831050e+02,-6.305660e+02,8.017600e+01,7.880900e+01,5.576200e+01,-6.054700e+01,5.273000e+00,-1.152340e+02,5.556600e+01,-4.111300e+01,1.344730e+02,-3.916990e+02,-1.067380e+02,-2.975590e+02,-5.771500e+01,1.093700e+01,1.647460e+02,-1.429690e+02,5.459000e+01
1.603520e+02,-6.613280e+02,7.285200e+01,5.341800e+01,4.726600e+01,-4.834000e+01,-5.957000e+00,-1.330080e+02,5.869100e+01,-5.459000e+01,9.628900e+01,-4.030270e+02,-1.115230e+02,-2.996090e+02,-8.906300e+01,-5.762000e+00,1.490230e+02,-1.603520e+02,4.033200e+01
1.673830e+02,-6.645510e+02,7.060500e+01,4.677700e+01,5.166000e+01,-5.332000e+01,-1.064500e+01,-1.507810e+02,5.312500e+01,-6.191400e+01,1.035160e+02,-3.977540e+02,-8.584000e+01,-2.834960e+02,-9.560500e+01,-8.984000e+00,1.532230e+02,-1.632810e+02,3.066400e+01
1.539060e+02,-6.879880e+02,3.750000e+01,1.816400e+01,4.218800e+01,-4.628900e+01,-2.373000e+01,-1.707030e+02,4.355500e+01,-7.929700e+01,9.423800e+01,-4.164060e+02,-7.021500e+01,-3.079100e+02,-9.951200e+01,-2.812500e+01,1.365230e+02,-1.804690e+02,1.152300e+01
1.570310e+02,-6.780270e+02,4.902300e+01,3.584000e+01,4.892600e+01,-5.595700e+01,-1.669900e+01,-1.679690e+02,4.843800e+01,-7.675800e+01,9.121100e+01,-4.178710e+02,-7.929700e+01,-3.105470e+02,-9.209000e+01,-2.480500e+01,1.434570e+02,-1.731450e+02,1.953100e+01
1.776370e+02,-6.464840e+02,6.386700e+01,6.357400e+01,6.347700e+01,-6.904300e+01,4.688000e+00,-1.405270e+02,5.869100e+01,-5.312500e+01,1.107420e+02,-3.879880e+02,-7.519500e+01,-2.900390e+02,-6.103500e+01,2.832000e+00,1.627930e+02,-1.497070e+02,4.462900e+01
2.007810e+02,-6.220700e+02,9.082000e+01,7.822300e+01,8.027300e+01,-8.320300e+01,2.128900e+01,-1.228520e+02,6.484400e+01,-4.101600e+01,1.317380e+02,-3.787110e+02,-9.160200e+01,-2.855470e+02,-4.199200e+01,1.601600e+01,1.789060e+02,-1.297850e+02,6.123000e+01
2.077150e+02,-6.048830e+02,1.105470e+02,9.482400e+01,8.613300e+01,-8.808600e+01,1.455100e+01,-1.178710e+02,4.824200e+01,-3.730500e+01,1.480470e+02,-3.551760e+02,-1.013670e+02,-2.570310e+02,-4.355500e+01,2.802700e+01,1.869140e+02,-1.234370e+02,6.220700e+01
2.275390e+02,-5.726560e+02,1.291990e+02,1.245120e+02,9.296900e+01,-9.531200e+01,2.168000e+01,-9.179700e+01,4.804700e+01,-1.093700e+01,1.660160e+02,-3.197270e+02,-1.203120e+02,-2.225590e+02,-2.646500e+01,5.976600e+01,2.063480e+02,-1.057620e+02,8.085900e+01
2.147460e+02,-5.864260e+02,1.098630e+02,1.137700e+02,8.056600e+01,-8.671900e+01,6.445000e+00,-1.070310e+02,3.710900e+01,-2.627000e+01,1.558590e+02,-3.474610e+02,-1.251950e+02,-2.524410e+02,-4.101600e+01,3.818400e+01,1.916020e+02,-1.209960e+02,6.328100e+01
1.892580e+02,-6.221680e+02,8.271500e+01,8.535200e+01,6.259800e+01,-6.738300e+01,-1.582000e+01,-1.338870e+02,3.037100e+01,-4.921900e+01,1.339840e+02,-3.784180e+02,-1.206050e+02,-2.846680e+02,-7.236300e+01,6.055000e+00,1.682620e+02,-1.456050e+02,3.857400e+01
1.756840e+02,-6.479490e+02,7.451200e+01,5.556600e+01,5.419900e+01,-5.644500e+01,-2.050800e+01,-1.498050e+02,4.160200e+01,-5.459000e+01,1.073240e+02,-3.738280e+02,-1.158200e+02,-2.789060e+02,-8.916000e+01,-2.734000e+00,1.573240e+02,-1.592770e+02,2.919900e+01
1.742190e+02,-6.588870e+02,7.216800e+01,4.384800e+01,5.791000e+01,-5.869100e+01,-1.982400e+01,-1.647460e+02,4.755900e+01,-7.050800e+01,1.028320e+02,-3.948240e+02,-1.050780e+02,-2.940430e+02,-9.589800e+01,-2.119100e+01,1.568360e+02,-1.628910e+02,2.080100e+01
1.567380e+02,-6.853520e+02,3.740200e+01,1.943400e+01,4.960900e+01,-5.283200e+01,-2.744100e+01,-1.894530e+02,4.541000e+01,-9.541000e+01,9.921900e+01,-4.341800e+02,-8.877000e+01,-3.280270e+02,-1.068360e+02,-5.117200e+01,1.398440e+02,-1.808590e+02,1.172000e+00
1.614260e+02,-6.749020e+02,5.029300e+01,3.515600e+01,5.537100e+01,-6.279300e+01,-2.363300e+01,-1.865230e+02,3.955100e+01,-9.130900e+01,1.012700e+02,-4.253910e+02,-8.769500e+01,-3.253910e+02,-9.580100e+01,-4.375000e+01,1.481450e+02,-1.735350e+02,6.641000e+00
1.847660e+02,-6.437500e+02,8.408200e+01,6.445300e+01,7.363300e+01,-7.880900e+01,-8.594000e+00,-1.588870e+02,3.710900e+01,-6.621100e+01,1.331050e+02,-3.877930e+02,-9.091800e+01,-2.972660e+02,-7.109400e+01,-1.210900e+01,1.708010e+02,-1.474610e+02,2.968800e+01
2.089840e+02,-6.101560e+02,9.550800e+01,9.853500e+01,8.164100e+01,-8.398400e+01,-4.297000e+00,-1.305660e+02,3.183600e+01,-4.345700e+01,1.447270e+02,-3.701170e+02,-9.414100e+01,-2.705080e+02,-5.761700e+01,1.757800e+01,1.912110e+02,-1.267580e+02,4.746100e+01
2.142580e+02,-5.947270e+02,1.031250e+02,1.061520e+02,8.291000e+01,-8.408200e+01,-1.562000e+00,-1.186520e+02,3.017600e+01,-3.505900e+01,1.429690e+02,-3.474610e+02,-1.031250e+02,-2.575200e+02,-4.990200e+01,3.017600e+01,1.938480e+02,-1.204100e+02,5.546900e+01
225,-5.718750e+02,1.212890e+02,1.261720e+02,9.121100e+01,-9.345700e+01,1.630900e+01,-9.589800e+01,4.541000e+01,-1.279300e+01,1.577150e+02,-3.233400e+02,-1.291020e+02,-2.328120e+02,-3.252000e+01,5.380900e+01,2.050780e+02,-1.027340e+02,7.841800e+01
2.165040e+02,-5.851560e+02,1.160160e+02,1.124020e+02,8.398400e+01,-8.955100e+01,1.044900e+01,-1.049800e+02,4.169900e+01,-2.060500e+01,1.518550e+02,-3.349610e+02,-1.295900e+02,-2.477540e+02,-4.111300e+01,3.720700e+01,1.931640e+02,-1.129880e+02,6.787100e+01
1.950200e+02,-6.149410e+02,8.398400e+01,9.150400e+01,6.533200e+01,-6.962900e+01,-1.093700e+01,-1.268550e+02,3.046900e+01,-3.828100e+01,1.267580e+02,-3.667970e+02,-1.189450e+02,-2.820310e+02,-6.503900e+01,8.691000e+00,1.733400e+02,-1.364260e+02,4.482400e+01
1.719730e+02,-6.457030e+02,6.025400e+01,7.373000e+01,4.873000e+01,-5.029300e+01,-2.880900e+01,-1.491210e+02,2.744100e+01,-5.722700e+01,9.218800e+01,-4.065430e+02,-1.242190e+02,-2.995120e+02,-9.960900e+01,-1.709000e+01,1.554690e+02,-1.578120e+02,2.675800e+01
1.691410e+02,-6.607420e+02,6.474600e+01,4.111300e+01,5.761700e+01,-5.839800e+01,-1.855500e+01,-1.575200e+02,4.589800e+01,-6.914100e+01,8.877000e+01,-3.985350e+02,-1.198240e+02,-2.977540e+02,-9.746100e+01,-1.552700e+01,1.516600e+02,-1.603520e+02,2.255900e+01
1.448240e+02,-6.983400e+02,4.306600e+01,7.520000e+00,5.224600e+01,-5.644500e+01,-2.802700e+01,-1.899410e+02,3.837900e+01,-1.019530e+02,6.445300e+01,-4.470700e+02,-1.079100e+02,-3.420900e+02,-1.135740e+02,-4.951200e+01,1.301760e+02,-1.802730e+02,-1.074000e+00
1.597660e+02,-6.776370e+02,5.244100e+01,2.675800e+01,5.556600e+01,-6.367200e+01,-1.962900e+01,-1.745120e+02,4.257800e+01,-8.378900e+01,1.072270e+02,-4.106450e+02,-7.851600e+01,-3.185550e+02,-9.482400e+01,-2.763700e+01,1.449220e+02,-1.683590e+02,1.210900e+01
1.869140e+02,-6.439450e+02,9.394500e+01,5.781300e+01,7.519500e+01,-8.134800e+01,-4.785000e+00,-1.532230e+02,4.492200e+01,-6.240200e+01,1.128910e+02,-3.975590e+02,-8.779300e+01,-3.002930e+02,-7.265600e+01,-5.762000e+00,1.697270e+02,-1.425780e+02,3.418000e+01
2.079100e+02,-6.156250e+02,1.063480e+02,8.691400e+01,8.750000e+01,-8.916000e+01,8.496000e+00,-1.317380e+02,4.560500e+01,-4.316400e+01,1.404300e+02,-3.878910e+02,-9.863300e+01,-2.761720e+02,-5.449200e+01,1.367200e+01,1.869140e+02,-1.208980e+02,5.224600e+01
2.119140e+02,-6.040040e+02,1.159180e+02,9.882800e+01,8.886700e+01,-8.916000e+01,8.594000e+00,-1.183590e+02,4.384800e+01,-3.154300e+01,1.289060e+02,-3.624020e+02,-1.154300e+02,-2.545900e+02,-5.351600e+01,3.017600e+01,1.914060e+02,-1.128910e+02,6.103500e+01
2.187500e+02,-5.815430e+02,1.109380e+02,1.222660e+02,9.873000e+01,-1.003910e+02,2.539100e+01,-1.020510e+02,5.273400e+01,-1.474600e+01,1.198240e+02,-3.383790e+02,-1.328130e+02,-2.324220e+02,-3.681600e+01,4.970700e+01,2.015630e+02,-9.863300e+01,7.998000e+01
2.141600e+02,-5.905270e+02,1.092770e+02,1.104490e+02,8.671900e+01,-9.121100e+01,1.865200e+01,-1.138670e+02,4.804700e+01,-2.597700e+01,1.648440e+02,-3.368160e+02,-9.882800e+01,-2.475590e+02,-3.691400e+01,3.144500e+01,1.939450e+02,-1.074220e+02,6.992200e+01
1.997070e+02,-6.164060e+02,8.896500e+01,9.091800e+01,6.289100e+01,-6.611300e+01,-2.734000e+00,-1.331050e+02,4.082000e+01,-4.248000e+01,1.554690e+02,-3.676760e+02,-1.074220e+02,-2.725590e+02,-5.947300e+01,9.863000e+00,1.798830e+02,-1.292970e+02,4.912100e+01
1.741210e+02,-6.470700e+02,7.031200e+01,6.210900e+01,4.990200e+01,-5.263700e+01,-2.031300e+01,-1.538090e+02,3.486300e+01,-6.337900e+01,1.125000e+02,-3.892580e+02,-1.186520e+02,-2.885740e+02,-8.603500e+01,-8.398000e+00,1.591800e+02,-1.521480e+02,2.763700e+01
1.693360e+02,-6.599610e+02,6.123000e+01,4.531200e+01,5.752000e+01,-5.996100e+01,-9.863000e+00,-1.610350e+02,5.048800e+01,-6.884800e+01,1.159180e+02,-4.071290e+02,-9.238300e+01,-3.049800e+02,-75,-1.552700e+01,1.547850e+02,-1.560550e+02,2.460900e+01
1.553710e+02,-6.870120e+02,4.765600e+01,2.265600e+01,5.058600e+01,-5.527300e+01,-2.002000e+01,-1.859380e+02,4.199200e+01,-9.189500e+01,1.000980e+02,-4.435550e+02,-7.607400e+01,-3.355470e+02,-8.710900e+01,-4.414100e+01,1.416020e+02,-1.723630e+02,3.711000e+00
1.570310e+02,-6.782230e+02,4.707000e+01,2.470700e+01,5.302700e+01,-6.044900e+01,-1.494100e+01,-1.792970e+02,4.834000e+01,-8.339800e+01,1.031250e+02,-4.122070e+02,-7.597700e+01,-3.198240e+02,-8.486300e+01,-3.271500e+01,1.458980e+02,-1.667970e+02,1.269500e+01
1.797850e+02,-6.447270e+02,7.314500e+01,5.488300e+01,6.787100e+01,-7.314500e+01,-5.469000e+00,-1.508790e+02,4.755900e+01,-5.800800e+01,1.166020e+02,-3.814450e+02,-8.818400e+01,-3.015630e+02,-7.119100e+01,-3.223000e+00,1.687500e+02,-1.424800e+02,3.593800e+01
2.012700e+02,-6.186520e+02,9.570300e+01,8.613300e+01,7.998000e+01,-8.252000e+01,5.860000e-01,-1.286130e+02,4.140600e+01,-4.218800e+01,1.433590e+02,-3.849610e+02,-9.150400e+01,-2.917970e+02,-5.781300e+01,1.552700e+01,1.870120e+02,-1.223630e+02,5.195300e+01
2.136720e+02,-5.940430e+02,1.037110e+02,1.093750e+02,8.310500e+01,-8.515600e+01,5.371000e+00,-1.201170e+02,3.691400e+01,-3.134800e+01,1.541020e+02,-3.522460e+02,-8.798800e+01,-2.473630e+02,-3.857400e+01,3.378900e+01,1.967770e+02,-1.134770e+02,5.927700e+01
2.302730e+02,-5.668950e+02,1.255860e+02,1.291990e+02,9.169900e+01,-9.492200e+01,2.265600e+01,-9.472700e+01,4.990200e+01,-7.129000e+00,1.672850e+02,-3.198240e+02,-1.273440e+02,-2.223630e+02,-2.656300e+01,5.996100e+01,2.109380e+02,-9.599600e+01,8.261700e+01
2.245120e+02,-5.813480e+02,1.212890e+02,1.143550e+02,8.359400e+01,-8.906300e+01,9.863000e+00,-1.025390e+02,3.789100e+01,-1.826200e+01,1.623050e+02,-3.363280e+02,-1.292970e+02,-2.525390e+02,-3.623000e+01,3.896500e+01,1.997070e+02,-1.063480e+02,7.070300e+01
1.972660e+02,-6.142580e+02,8.994100e+01,8.593700e+01,6.503900e+01,-7.148400e+01,-1.093700e+01,-1.234370e+02,2.861300e+01,-3.720700e+01,1.339840e+02,-3.584960e+02,-1.097660e+02,-2.590820e+02,-5.459000e+01,1.757800e+01,1.760740e+02,-1.321290e+02,4.716800e+01
1.787110e+02,-6.375980e+02,7.343700e+01,6.933600e+01,50,-5.351600e+01,-3.232400e+01,-1.406250e+02,1.884800e+01,-5.127000e+01,1.146480e+02,-3.687500e+02,-1.058590e+02,-2.706050e+02,-7.841800e+01,1.084000e+01,1.624020e+02,-1.522460e+02,2.773400e+01
1.673830e+02,-6.590820e+02,6.826200e+01,5.712900e+01,4.628900e+01,-4.824200e+01,-3.623000e+01,-1.540040e+02,2.275400e+01,-6.298800e+01,9.785200e+01,-4.157230e+02,-1.056640e+02,-3.065430e+02,-8.808600e+01,-6.641000e+00,1.556640e+02,-1.609380e+02,1.845700e+01
1.552730e+02,-6.788090e+02,3.652300e+01,3.261700e+01,4.248000e+01,-4.541000e+01,-3.437500e+01,-1.693360e+02,3.056600e+01,-7.451200e+01,9.414100e+01,-4.266600e+02,-8.974600e+01,-3.101560e+02,-9.101600e+01,-2.265600e+01,1.429690e+02,-1.749020e+02,7.031000e+00
1.521480e+02,-6.833980e+02,4.531200e+01,1.933600e+01,5.224600e+01,-5.830100e+01,-2.334000e+01,-1.666020e+02,4.101600e+01,-6.962900e+01,8.496100e+01,-4.032230e+02,-9.365200e+01,-3.014650e+02,-8.466800e+01,-1.845700e+01,1.412110e+02,-1.725590e+02,1.445300e+01
1.666020e+02,-6.592770e+02,6.826200e+01,4.853500e+01,6.621100e+01,-7.255900e+01,-6.348000e+00,-1.475590e+02,4.775400e+01,-5.419900e+01,1.059570e+02,-3.927730e+02,-9.638700e+01,-2.914060e+02,-6.757800e+01,-3.809000e+00,1.567380e+02,-1.522460e+02,3.632800e+01
1.937500e+02,-6.230470e+02,8.974600e+01,8.486300e+01,7.539100e+01,-7.890600e+01,1.191400e+01,-1.144530e+02,5.937500e+01,-2.402300e+01,1.440430e+02,-3.822270e+02,-9.052700e+01,-2.617190e+02,-5.097700e+01,3.271500e+01,1.797850e+02,-1.272460e+02,6.250000e+01
2.005860e+02,-6.110350e+02,1.110350e+02,8.984400e+01,8.164100e+01,-8.525400e+01,2.021500e+01,-1.013670e+02,6.347700e+01,-1.328100e+01,1.335940e+02,-3.533200e+02,-1.070310e+02,-2.427730e+02,-4.834000e+01,4.794900e+01,1.829100e+02,-1.188480e+02,7.304700e+01
2.154300e+02,-5.858400e+02,1.293950e+02,1.111330e+02,9.160200e+01,-9.443400e+01,3.300800e+01,-8.320300e+01,6.972700e+01,5.860000e-01,1.441410e+02,-3.188480e+02,-1.200200e+02,-2.179690e+02,-3.623000e+01,6.591800e+01,1.954100e+02,-1.033200e+02,9.130900e+01
2.085940e+02,-5.919920e+02,1.047850e+02,1.091800e+02,8.310500e+01,-8.769500e+01,2.910200e+01,-8.769500e+01,6.669900e+01,-4.688000e+00,1.524410e+02,-3.351560e+02,-1.176760e+02,-2.281250e+02,-3.310500e+01,5.537100e+01,1.865230e+02,-1.110350e+02,8.388700e+01
1.881840e+02,-6.183590e+02,7.392600e+01,9.287100e+01,6.113300e+01,-6.660200e+01,-4.880000e-01,-1.128910e+02,4.560500e+01,-2.646500e+01,1.342770e+02,-3.692380e+02,-1.136720e+02,-2.635740e+02,-5.927700e+01,2.832000e+01,1.671880e+02,-1.360350e+02,5.595700e+01
1.666020e+02,-6.470700e+02,5.839800e+01,6.591800e+01,4.775400e+01,-5.166000e+01,-2.373000e+01,-1.358400e+02,3.457000e+01,-4.316400e+01,1.094730e+02,-3.855470e+02,-1.040040e+02,-2.838870e+02,-8.613300e+01,8.203000e+00,1.494140e+02,-1.583010e+02,3.564500e+01
1.660160e+02,-6.578130e+02,6.396500e+01,5.097700e+01,5.048800e+01,-5.312500e+01,-2.763700e+01,-150,3.603500e+01,-5.332000e+01,9.892600e+01,-4.108400e+02,-9.755900e+01,-3.022460e+02,-8.476600e+01,-4.004000e+00,1.493160e+02,-1.633790e+02,2.714800e+01
1.468750e+02,-6.901370e+02,5.429700e+01,1.904300e+01,4.638700e+01,-4.892600e+01,-3.798800e+01,-1.708980e+02,3.066400e+01,-7.890600e+01,7.373000e+01,-4.235350e+02,-9.638700e+01,-3.192380e+02,-1.025390e+02,-3.066400e+01,1.312500e+02,-1.793950e+02,6.152000e+00
1.561520e+02,-6.791990e+02,3.906200e+01,2.451200e+01,4.941400e+01,-5.449200e+01,-2.158200e+01,-1.603520e+02,4.794900e+01,-6.718800e+01,9.658200e+01,-3.958980e+02,-7.539100e+01,-3.023440e+02,-8.544900e+01,-1.308600e+01,1.384770e+02,-1.733400e+02,1.777300e+01
1.782230e+02,-6.474610e+02,5.810500e+01,5.478500e+01,6.416000e+01,-6.982400e+01,-1.562000e+00,-1.363280e+02,5.859400e+01,-4.257800e+01,125,-3.844730e+02,-8.154300e+01,-2.812500e+02,-6.474600e+01,1.601600e+01,1.597660e+02,-1.488280e+02,4.345700e+01
1.994140e+02,-6.183590e+02,8.769500e+01,8.730500e+01,7.929700e+01,-8.261700e+01,9.863000e+00,-1.219730e+02,5.673800e+01,-3.115200e+01,1.356450e+02,-3.760740e+02,-9.765600e+01,-2.698240e+02,-5.468800e+01,2.597700e+01,1.783200e+02,-1.273440e+02,5.761700e+01
2.018550e+02,-6.071290e+02,9.668000e+01,9.355500e+01,8.164100e+01,-8.466800e+01,1.552700e+01,-1.118160e+02,5.546900e+01,-2.402300e+01,1.382810e+02,-3.497070e+02,-1.062500e+02,-2.581050e+02,-4.238300e+01,3.252000e+01,1.799800e+02,-1.212890e+02,6.572300e+01
2.105470e+02,-5.875000e+02,1.115230e+02,1.138670e+02,9.023400e+01,-9.355500e+01,2.578100e+01,-9.404300e+01,6.142600e+01,-9.473000e+00,1.144530e+02,-3.263670e+02,-1.364260e+02,-2.353520e+02,-2.529300e+01,4.843800e+01,1.902340e+02,-1.072270e+02,8.261700e+01
2.029300e+02,-5.957030e+02,1.046870e+02,1.044920e+02,9.013700e+01,-9.599600e+01,1.992200e+01,-1.069340e+02,5.341800e+01,-2.373000e+01,9.980500e+01,-3.429690e+02,-1.406250e+02,-2.460940e+02,-3.330100e+01,3.095700e+01,1.804690e+02,-1.139650e+02,7.138700e+01
1.960940e+02,-6.099610e+02,8.623000e+01,9.169900e+01,6.416000e+01,-6.933600e+01,-1.074000e+00,-1.200200e+02,4.502000e+01,-3.740200e+01,1.450200e+02,-3.504880e+02,-1.181640e+02,-2.645510e+02,-5.654300e+01,2.304700e+01,1.725590e+02,-1.319340e+02,5.214800e+01
1.729490e+02,-6.421870e+02,7.070300e+01,7.480500e+01,4.628900e+01,-5.087900e+01,-2.568400e+01,-1.467770e+02,3.154300e+01,-6.201200e+01,1.198240e+02,-4.053710e+02,-1.195310e+02,-2.949220e+02,-8.789100e+01,-2.539000e+00,1.560550e+02,-1.546870e+02,2.714800e+01
1.698240e+02,-6.551760e+02,6.025400e+01,5.293000e+01,4.912100e+01,-5.253900e+01,-2.246100e+01,-1.602540e+02,4.082000e+01,-6.953100e+01,1.137700e+02,-4.038090e+02,-1.029300e+02,-3.011720e+02,-8.642600e+01,-1.767600e+01,1.521480e+02,-1.602540e+02,2.119100e+01
1.547850e+02,-6.809570e+02,4.414100e+01,2.392600e+01,4.668000e+01,-5.058600e+01,-2.451200e+01,-1.833010e+02,4.072300e+01,-8.974600e+01,9.287100e+01,-4.223630e+02,-8.925800e+01,-3.342770e+02,-9.443400e+01,-4.580100e+01,1.386720e+02,-1.741210e+02,4.102000e+00
1.498050e+02,-6.836910e+02,3.574200e+01,2.460900e+01,4.433600e+01,-5.175800e+01,-3.105500e+01,-1.841800e+02,3.173800e+01,-8.828100e+01,9.287100e+01,-4.340820e+02,-8.808600e+01,-3.332030e+02,-1.013670e+02,-3.632800e+01,1.372070e+02,-1.754880e+02,2.930000e+00
1.735350e+02,-6.541020e+02,6.289100e+01,5.185500e+01,5.927700e+01,-6.669900e+01,-2.177700e+01,-1.561520e+02,3.418000e+01,-5.918000e+01,1.153320e+02,-3.937500e+02,-9.951200e+01,-3.037110e+02,-8.652300e+01,0,1.583980e+02,-1.512700e+02,2.714800e+01
1.964840e+02,-6.252930e+02,8.818400e+01,8.281200e+01,7.675800e+01,-8.066400e+01,-4.395000e+00,-1.351560e+02,4.003900e+01,-4.326200e+01,1.333980e+02,-3.766600e+02,-1.017580e+02,-2.764650e+02,-6.435500e+01,1.835900e+01,1.786130e+02,-1.272460e+02,4.609400e+01
2.041990e+02,-6.105470e+02,9.638700e+01,9.043000e+01,7.773400e+01,-8.007800e+01,5.273000e+00,-1.161130e+02,4.375000e+01,-3.154300e+01,1.457030e+02,-3.576170e+02,-1.007810e+02,-2.531250e+02,-5.234400e+01,3.212900e+01,1.852540e+02,-1.168950e+02,5.859400e+01
2.217770e+02,-5.792970e+02,1.270510e+02,1.224610e+02,8.886700e+01,-9.150400e+01,2.187500e+01,-9.970700e+01,5.625000e+01,-1.396500e+01,1.393550e+02,-3.235350e+02,-1.240230e+02,-2.092770e+02,-3.613300e+01,5.605500e+01,2.032230e+02,-9.804700e+01,7.783200e+01
2.222660e+02,-5.799800e+02,1.488280e+02,1.151370e+02,9.023400e+01,-9.433600e+01,1.826200e+01,-1.061520e+02,5.371100e+01,-2.294900e+01,1.252930e+02,-3.318360e+02,-1.285160e+02,-2.278320e+02,-3.818400e+01,4.502000e+01,1.996090e+02,-1.006840e+02,7.070300e+01
2.099610e+02,-6.018550e+02,8.906300e+01,1.014650e+02,5.966800e+01,-6.621100e+01,3.516000e+00,-1.193360e+02,5.146500e+01,-3.574200e+01,1.414060e+02,-3.552730e+02,-9.482400e+01,-2.610350e+02,-5.439500e+01,2.861300e+01,1.833980e+02,-1.231450e+02,5.351600e+01
1.848630e+02,-6.320310e+02,5.703100e+01,7.880900e+01,4.209000e+01,-4.658200e+01,-1.757800e+01,-1.421880e+02,3.505900e+01,-5.878900e+01,1.199220e+02,-3.835940e+02,-8.056600e+01,-2.954100e+02,-8.554700e+01,-7.810000e-01,1.650390e+02,-1.458980e+02,3.007800e+01
1.853520e+02,-6.401370e+02,6.201200e+01,6.855500e+01,4.658200e+01,-4.794900e+01,-1.777300e+01,-1.511720e+02,4.052700e+01,-6.328100e+01,1.163090e+02,-3.850590e+02,-8.095700e+01,-2.810550e+02,-9.130900e+01,-1.758000e+00,1.679690e+02,-1.490230e+02,2.460900e+01
1.781250e+02,-6.668950e+02,5.898400e+01,3.486300e+01,4.570300e+01,-4.804700e+01,-2.627000e+01,-1.731450e+02,3.584000e+01,-8.281200e+01,1.089840e+02,-4.083010e+02,-7.031200e+01,-3.013670e+02,-9.511700e+01,-2.519500e+01,1.587890e+02,-1.606450e+02,7.324000e+00
1.686520e+02,-6.763670e+02,5.136700e+01,2.138700e+01,4.560500e+01,-5.205100e+01,-2.324200e+01,-1.764650e+02,4.130900e+01,-8.271500e+01,1.042970e+02,-4.057620e+02,-6.064500e+01,-3.103520e+02,-8.642600e+01,-2.724600e+01,1.521480e+02,-1.628910e+02,9.082000e+00
1.856450e+02,-6.478520e+02,7.617200e+01,5.195300e+01,6.142600e+01,-6.835900e+01,-2.832000e+00,-1.559570e+02,5.410200e+01,-6.181600e+01,1.312500e+02,-3.856450e+02,-7.382800e+01,-2.901370e+02,-6.562500e+01,-1.660000e+00,1.706050e+02,-1.405270e+02,3.281200e+01
2.097660e+02,-6.162110e+02,1.051760e+02,8.183600e+01,8.066400e+01,-8.300800e+01,2.255900e+01,-1.323240e+02,7.041000e+01,-4.189500e+01,1.475590e+02,-3.716800e+02,-7.744100e+01,-2.709960e+02,-3.994100e+01,1.562500e+01,1.919920e+02,-1.153320e+02,5.732400e+01
2.199220e+02,-5.978520e+02,1.124020e+02,1.018550e+02,8.095700e+01,-8.252000e+01,2.255900e+01,-1.171870e+02,6.123000e+01,-3.105500e+01,1.564450e+02,-3.613280e+02,-8.330100e+01,-2.534180e+02,-3.808600e+01,2.968800e+01,2.006840e+02,-1.063480e+02,6.435500e+01
2.359380e+02,-5.705080e+02,1.307620e+02,1.281250e+02,8.300800e+01,-8.584000e+01,2.089800e+01,-9.043000e+01,5.585900e+01,-8.789000e+00,1.594730e+02,-3.212890e+02,-1.080080e+02,-2.212890e+02,-3.779300e+01,6.259800e+01,2.167970e+02,-9.130900e+01,8.046900e+01
2.351560e+02,-5.728520e+02,1.293950e+02,1.222660e+02,8.203100e+01,-8.789100e+01,2.285200e+01,-9.091800e+01,5.898400e+01,-1.093700e+01,1.682620e+02,-3.280270e+02,-1.127930e+02,-2.291990e+02,-3.437500e+01,5.566400e+01,2.123050e+02,-9.228500e+01,7.919900e+01
2.052730e+02,-6.094730e+02,1.029300e+02,9.394500e+01,6.269500e+01,-6.914100e+01,3.320000e+00,-1.192380e+02,4.990200e+01,-3.857400e+01,1.258790e+02,-3.643550e+02,-1.210940e+02,-2.787110e+02,-6.279300e+01,1.738300e+01,1.855470e+02,-1.194340e+02,5.263700e+01
1.781250e+02,-6.425780e+02,8.505900e+01,6.933600e+01,4.687500e+01,-5.156200e+01,-1.796900e+01,-1.429690e+02,3.935500e+01,-5.927700e+01,8.066400e+01,-3.900390e+02,-1.167970e+02,-2.943360e+02,-8.681600e+01,-4.492000e+00,1.641600e+02,-1.423830e+02,3.095700e+01
1.814450e+02,-6.460940e+02,6.113300e+01,6.562500e+01,4.873000e+01,-5.195300e+01,-1.084000e+01,-1.484370e+02,5.400400e+01,-6.171900e+01,1.130860e+02,-3.906250e+02,-7.099600e+01,-2.823240e+02,-7.587900e+01,-3.516000e+00,1.656250e+02,-1.463870e+02,2.988300e+01
1.759770e+02,-6.641600e+02,5.322300e+01,5.009800e+01,4.384800e+01,-4.628900e+01,-2.539100e+01,-1.674800e+02,4.111300e+01,-7.773400e+01,1.088870e+02,-4.168950e+02,-7.959000e+01,-3.062500e+02,-9.736300e+01,-2.490200e+01,1.591800e+02,-1.579100e+02,1.171900e+01
1.683590e+02,-6.766600e+02,5.507800e+01,3.642600e+01,4.169900e+01,-4.707000e+01,-3.662100e+01,-1.704100e+02,2.871100e+01,-7.695300e+01,9.570300e+01,-4.142580e+02,-8.203100e+01,-3.075200e+02,-1.039060e+02,-2.919900e+01,1.538090e+02,-1.634770e+02,7.129000e+00
1.827150e+02,-6.495120e+02,6.835900e+01,5.517600e+01,5.605500e+01,-6.123000e+01,-1.289100e+01,-1.425780e+02,4.599600e+01,-5.175800e+01,1.237300e+02,-3.838870e+02,-8.007800e+01,-2.792970e+02,-7.480500e+01,2.344000e+00,1.699220e+02,-1.414060e+02,3.544900e+01
2.045900e+02,-6.210940e+02,9.550800e+01,7.978500e+01,7.294900e+01,-7.734400e+01,7.129000e+00,-1.226560e+02,5.625000e+01,-3.369100e+01,1.480470e+02,-3.723630e+02,-7.675800e+01,-2.686520e+02,-4.746100e+01,2.773400e+01,1.880860e+02,-1.189450e+02,5.781300e+01
2.113280e+02,-6.041020e+02,1.060550e+02,1.024410e+02,7.578100e+01,-7.929700e+01,1.406200e+01,-1.075200e+02,5.937500e+01,-2.382800e+01,1.454100e+02,-3.673830e+02,-8.789100e+01,-2.572270e+02,-4.052700e+01,3.681600e+01,1.928710e+02,-1.112300e+02,6.855500e+01
2.224610e+02,-5.835940e+02,1.227540e+02,1.178710e+02,8.466800e+01,-8.544900e+01,3.037100e+01,-8.300800e+01,7.207000e+01,-3.906000e+00,1.533200e+02,-3.233400e+02,-9.462900e+01,-2.251950e+02,-3.017600e+01,5.722700e+01,2.022460e+02,-9.736300e+01,8.945300e+01
2.227540e+02,-5.813480e+02,1.201170e+02,1.198240e+02,8.115200e+01,-8.535200e+01,3.222700e+01,-7.802700e+01,7.275400e+01,-1.660000e+00,1.542970e+02,-3.266600e+02,-1.029300e+02,-2.348630e+02,-2.627000e+01,5.761700e+01,2.002930e+02,-9.824200e+01,9.052700e+01
2.002930e+02,-6.092770e+02,9.111300e+01,1.007810e+02,6.377000e+01,-6.787100e+01,6.445000e+00,-1.047850e+02,5.615200e+01,-2.353500e+01,1.236330e+02,-3.652340e+02,-1.161130e+02,-2.631840e+02,-5.595700e+01,3.193400e+01,1.797850e+02,-1.230470e+02,6.347700e+01
1.728520e+02,-6.453120e+02,7.236300e+01,6.796900e+01,5.498000e+01,-5.859400e+01,-2.002000e+01,-1.367190e+02,3.232400e+01,-5.078100e+01,6.406300e+01,-3.826170e+02,-1.237300e+02,-2.839840e+02,-8.212900e+01,3.320000e+00,1.571290e+02,-1.486330e+02,3.388700e+01
1.777340e+02,-6.519530e+02,5.898400e+01,6.279300e+01,4.355500e+01,-4.550800e+01,-2.158200e+01,-1.389650e+02,3.906200e+01,-5.332000e+01,1.187500e+02,-3.946290e+02,-7.822300e+01,-2.882810e+02,-8.066400e+01,4.880000e-01,1.594730e+02,-1.537110e+02,3.066400e+01
1.672850e+02,-6.736330e+02,4.726600e+01,3.662100e+01,4.423800e+01,-4.580100e+01,-2.158200e+01,-1.564450e+02,4.335900e+01,-6.826200e+01,1.113280e+02,-4.165040e+02,-6.943400e+01,-3.138670e+02,-8.759800e+01,-2.207000e+01,1.472660e+02,-1.653320e+02,1.777300e+01
1.613280e+02,-6.826170e+02,4.160200e+01,2.304700e+01,3.896500e+01,-4.550800e+01,-1.709000e+01,-1.572270e+02,5.146500e+01,-6.640600e+01,1.175780e+02,-4.128910e+02,-4.824200e+01,-3.173830e+02,-8.037100e+01,-2.089800e+01,1.418950e+02,-1.689450e+02,1.894500e+01
1.800780e+02,-6.541990e+02,6.689500e+01,4.726600e+01,6.025400e+01,-6.650400e+01,7.910000e+00,-1.362300e+02,6.259800e+01,-4.257800e+01,1.218750e+02,-3.784180e+02,-3.994100e+01,-2.759770e+02,-4.707000e+01,1.054700e+01,1.615230e+02,-1.452150e+02,4.384800e+01
2.019530e+02,-6.244140e+02,9.365200e+01,7.763700e+01,7.724600e+01,-8.095700e+01,2.587900e+01,-1.163090e+02,6.289100e+01,-2.558600e+01,1.521480e+02,-3.666990e+02,-6.035200e+01,-2.582030e+02,-3.544900e+01,2.861300e+01,1.802730e+02,-1.224610e+02,6.328100e+01
2.120120e+02,-6.064450e+02,1.019530e+02,1.002930e+02,7.890600e+01,-7.998000e+01,3.291000e+01,-1.031250e+02,6.074200e+01,-1.718700e+01,1.590820e+02,-3.597660e+02,-8.418000e+01,-2.529300e+02,-3.505900e+01,3.574200e+01,1.879880e+02,-1.123050e+02,7.382800e+01
2.185550e+02,-5.923830e+02,1.203120e+02,1.084960e+02,8.691400e+01,-8.847700e+01,4.502000e+01,-8.447300e+01,6.767600e+01,5.860000e-01,1.687500e+02,-3.451170e+02,-9.746100e+01,-2.552730e+02,-2.207000e+01,5.712900e+01,1.941410e+02,-1.002930e+02,9.150400e+01
2.282230e+02,-5.821290e+02,1.384770e+02,1.164060e+02,8.720700e+01,-9.228500e+01,4.248000e+01,-8.359400e+01,5.761700e+01,9.800000e-02,1.577150e+02,-3.403320e+02,-1.083010e+02,-2.469730e+02,-2.060500e+01,5.517600e+01,1.983400e+02,-9.785200e+01,8.945300e+01
2.083980e+02,-6.056640e+02,1.020510e+02,1.064450e+02,6.865200e+01,-7.548800e+01,2.294900e+01,-1.109380e+02,4.394500e+01,-2.255900e+01,1.287110e+02,-3.820310e+02,-1.046870e+02,-2.485350e+02,-4.609400e+01,2.988300e+01,1.802730e+02,-1.211910e+02,6.230500e+01
1.862300e+02,-6.324220e+02,5.771500e+01,7.089800e+01,5.273400e+01,-5.576200e+01,1.093700e+01,-1.216800e+02,4.492200e+01,-3.242200e+01,1.209960e+02,-3.679690e+02,-9.091800e+01,-2.639650e+02,-6.523400e+01,2.324200e+01,1.604490e+02,-1.424800e+02,4.804700e+01
1.736330e+02,-6.526370e+02,5.175800e+01,5.712900e+01,4.785200e+01,-5.019500e+01,4.980000e+00,-1.352540e+02,4.609400e+01,-4.423800e+01,1.134770e+02,-3.864260e+02,-7.988300e+01,-2.840820e+02,-7.207000e+01,6.836000e+00,1.543950e+02,-1.518550e+02,3.798800e+01
1.630860e+02,-6.756840e+02,5.078100e+01,3.261700e+01,4.794900e+01,-5.156200e+01,-2.344000e+00,-1.555660e+02,4.101600e+01,-6.425800e+01,1.041020e+02,-4.143550e+02,-6.669900e+01,-3.101560e+02,-7.783200e+01,-1.816400e+01,1.447270e+02,-1.625000e+02,2.109400e+01
1.594730e+02,-6.833010e+02,4.794900e+01,1.601600e+01,4.912100e+01,-5.625000e+01,-3.223000e+00,-1.647460e+02,4.355500e+01,-7.138700e+01,1.111330e+02,-4.087890e+02,-5.048800e+01,-3.042970e+02,-8.144500e+01,-2.226600e+01,1.396480e+02,-1.672850e+02,1.699200e+01
1.808590e+02,-6.518550e+02,6.787100e+01,5.009800e+01,6.689500e+01,-7.304700e+01,2.324200e+01,-1.433590e+02,6.337900e+01,-50,1.193360e+02,-3.824220e+02,-4.941400e+01,-2.766600e+02,-5.263700e+01,5.664000e+00,1.614260e+02,-1.418950e+02,4.433600e+01
2.060550e+02,-6.212890e+02,9.765600e+01,8.115200e+01,8.408200e+01,-8.730500e+01,4.345700e+01,-1.270510e+02,7.080100e+01,-3.642600e+01,1.512700e+02,-3.711910e+02,-6.689500e+01,-2.660160e+02,-2.832000e+01,1.894500e+01,1.820310e+02,-1.179690e+02,6.396500e+01
2.144530e+02,-6.069340e+02,1.081050e+02,9.736300e+01,8.505900e+01,-8.720700e+01,3.916000e+01,-1.147460e+02,5.537100e+01,-2.753900e+01,1.624020e+02,-3.670900e+02,-8.144500e+01,-2.612300e+02,-2.265600e+01,2.890600e+01,1.889650e+02,-1.089840e+02,6.894500e+01
2.259770e+02,-5.850590e+02,1.265630e+02,1.098630e+02,8.945300e+01,-9.238300e+01,3.808600e+01,-9.521500e+01,4.502000e+01,-8.105000e+00,1.696290e+02,-3.198240e+02,-9.033200e+01,-2.253910e+02,-1.132800e+01,5.800800e+01,1.996090e+02,-9.658200e+01,8.076200e+01
2.310550e+02,-5.770510e+02,1.499020e+02,1.154300e+02,9.511700e+01,-1.003910e+02,3.964800e+01,-9.306600e+01,4.472700e+01,-7.129000e+00,1.527340e+02,-3.160160e+02,-1.119140e+02,-2.340820e+02,-1.845700e+01,5.576200e+01,2.029300e+02,-9.218800e+01,8.183600e+01
2.168950e+02,-5.999020e+02,1.034180e+02,9.785200e+01,7.441400e+01,-7.890600e+01,3.076200e+01,-1.107420e+02,4.931600e+01,-2.275400e+01,1.615230e+02,-3.475590e+02,-8.584000e+01,-2.540040e+02,-3.691400e+01,3.085900e+01,1.859380e+02,-1.134770e+02,6.543000e+01
1.954100e+02,-6.233400e+02,7.304700e+01,8.212900e+01,5.918000e+01,-6.084000e+01,1.406200e+01,-1.311520e+02,4.179700e+01,-4.091800e+01,1.486330e+02,-3.594730e+02,-6.865200e+01,-2.570310e+02,-5.996100e+01,1.328100e+01,1.697270e+02,-1.340820e+02,4.541000e+01
1.821290e+02,-6.451170e+02,6.494100e+01,6.250000e+01,5.459000e+01,-5.566400e+01,7.422000e+00,-1.479490e+02,4.130900e+01,-5.488300e+01,1.236330e+02,-3.756840e+02,-6.894500e+01,-2.683590e+02,-6.718800e+01,-3.613000e+00,1.599610e+02,-1.457030e+02,3.271500e+01
1.724610e+02,-6.701170e+02,6.582000e+01,3.554700e+01,5.664100e+01,-5.966800e+01,5.859000e+00,-1.731450e+02,4.160200e+01,-7.685500e+01,9.687500e+01,-4.172850e+02,-5.986300e+01,-3.098630e+02,-6.543000e+01,-3.466800e+01,1.501950e+02,-1.554690e+02,1.611300e+01
1.652340e+02,-6.786130e+02,5.927700e+01,3.437500e+01,5.058600e+01,-5.625000e+01,-9.770000e-01,-1.833010e+02,3.544900e+01,-8.750000e+01,9.921900e+01,-4.495120e+02,-5.507800e+01,-3.310550e+02,-7.343700e+01,-4.082000e+01,1.459960e+02,-1.633790e+02,6.836000e+00
1.837890e+02,-6.499020e+02,7.265600e+01,5.517600e+01,6.220700e+01,-6.767600e+01,1.474600e+01,-1.543950e+02,4.677700e+01,-5.732400e+01,1.278320e+02,-4.053710e+02,-6.074200e+01,-2.951170e+02,-5.869100e+01,-5.957000e+00,1.648440e+02,-1.418950e+02,3.291000e+01
2.097660e+02,-6.189450e+02,1.008790e+02,7.158200e+01,8.291000e+01,-8.535200e+01,3.603500e+01,-1.329100e+02,5.878900e+01,-3.378900e+01,1.639650e+02,-3.609370e+02,-5.957000e+01,-2.650390e+02,-3.769500e+01,1.660200e+01,1.841800e+02,-1.163090e+02,5.625000e+01
2.168950e+02,-6.037110e+02,1.031250e+02,9.160200e+01,8.828100e+01,-8.945300e+01,5.009800e+01,-1.178710e+02,6.933600e+01,-2.236300e+01,1.624020e+02,-3.546880e+02,-7.607400e+01,-2.586910e+02,-2.939500e+01,3.095700e+01,1.905270e+02,-1.053710e+02,7.031200e+01
2.208010e+02,-5.892580e+02,1.141600e+02,1.129880e+02,9.052700e+01,-9.248000e+01,4.960900e+01,-9.960900e+01,6.132800e+01,-1.201200e+01,1.330080e+02,-3.416020e+02,-1.003910e+02,-2.550780e+02,-3.105500e+01,5.224600e+01,1.967770e+02,-9.687500e+01,8.037100e+01
2.335940e+02,-5.769530e+02,1.272460e+02,1.235350e+02,8.691400e+01,-9.199200e+01,4.921900e+01,-8.720700e+01,5.781300e+01,-4.880000e-01,1.602540e+02,-3.342770e+02,-9.668000e+01,-2.333980e+02,-2.265600e+01,6.884800e+01,2.049800e+02,-8.964800e+01,8.613300e+01
2.177730e+02,-5.990230e+02,1.054690e+02,9.882800e+01,7.304700e+01,-8.066400e+01,4.043000e+01,-1.133790e+02,5.839800e+01,-2.187500e+01,1.495120e+02,-3.414060e+02,-9.121100e+01,-2.393550e+02,-3.779300e+01,4.003900e+01,1.856450e+02,-1.107420e+02,6.406300e+01
1.953130e+02,-6.271480e+02,8.154300e+01,7.177700e+01,5.986300e+01,-6.357400e+01,2.285200e+01,-1.365230e+02,4.970700e+01,-4.052700e+01,1.347660e+02,-3.780270e+02,-7.480500e+01,-2.685550e+02,-5.410200e+01,1.953100e+01,1.661130e+02,-1.332030e+02,4.257800e+01
1.875980e+02,-6.410160e+02,7.119100e+01,5.712900e+01,5.312500e+01,-5.498000e+01,3.906000e+00,-1.490230e+02,3.300800e+01,-5.019500e+01,1.329100e+02,-3.766600e+02,-6.699200e+01,-2.768550e+02,-6.699200e+01,1.162100e+01,1.616210e+02,-1.443360e+02,2.724600e+01
1.834960e+02,-6.584960e+02,6.357400e+01,4.199200e+01,4.931600e+01,-5.068400e+01,-8.398000e+00,-1.668950e+02,2.050800e+01,-6.543000e+01,1.248050e+02,-3.982420e+02,-6.308600e+01,-3.013670e+02,-7.519500e+01,-5.859000e+00,1.583980e+02,-1.532230e+02,1.171900e+01
1.708980e+02,-6.754880e+02,5.332000e+01,3.740200e+01,4.277300e+01,-4.804700e+01,-1.630900e+01,-1.861330e+02,1.777300e+01,-8.271500e+01,1.057620e+02,-4.264650e+02,-6.230500e+01,-3.182620e+02,-9.287100e+01,-2.539100e+01,1.487300e+02,-1.635740e+02,-9.800000e-02
1.837890e+02,-6.506840e+02,7.685500e+01,5.361300e+01,6.054700e+01,-6.709000e+01,6.348000e+00,-1.612300e+02,3.652300e+01,-6.142600e+01,1.206050e+02,-3.929690e+02,-5.976600e+01,-2.969730e+02,-7.089800e+01,4.880000e-01,1.638670e+02,-1.426760e+02,2.597700e+01
2.013670e+02,-6.244140e+02,9.580100e+01,7.402300e+01,75,-7.822300e+01,2.304700e+01,-1.336910e+02,4.873000e+01,-4.189500e+01,1.526370e+02,-3.788090e+02,-5.898400e+01,-2.948240e+02,-4.609400e+01,1.552700e+01,1.800780e+02,-1.208010e+02,4.746100e+01
2.166990e+02,-6.017580e+02,1.051760e+02,9.404300e+01,8.222700e+01,-8.339800e+01,3.056600e+01,-1.189450e+02,5.351600e+01,-3.027300e+01,1.454100e+02,-3.473630e+02,-9.169900e+01,-2.526370e+02,-3.730500e+01,3.173800e+01,1.914060e+02,-1.078120e+02,5.937500e+01
2.223630e+02,-5.844730e+02,1.216800e+02,1.110350e+02,9.160200e+01,-9.277300e+01,3.750000e+01,-1.053710e+02,5.410200e+01,-1.640600e+01,1.199220e+02,-3.265620e+02,-1.133790e+02,-2.195310e+02,-3.408200e+01,5.410200e+01,1.983400e+02,-9.697300e+01,7.490200e+01
2.377930e+02,-5.638670e+02,1.304690e+02,1.310550e+02,8.339800e+01,-8.691400e+01,4.482400e+01,-7.880900e+01,6.142600e+01,4.395000e+00,1.738280e+02,-3.102540e+02,-8.613300e+01,-2.007810e+02,-1.669900e+01,7.216800e+01,2.107420e+02,-8.681600e+01,9.169900e+01
2.149410e+02,-5.967770e+02,1.004880e+02,1.040040e+02,6.152300e+01,-6.601600e+01,2.041000e+01,-100,4.453100e+01,-1.953100e+01,1.581050e+02,-3.472660e+02,-7.978500e+01,-2.567380e+02,-4.033200e+01,3.798800e+01,1.882810e+02,-1.110350e+02,6.572300e+01
1.865230e+02,-6.332030e+02,7.099600e+01,8.173800e+01,4.033200e+01,-4.482400e+01,-7.324000e+00,-1.251950e+02,2.841800e+01,-4.716800e+01,1.264650e+02,-4.078130e+02,-1.009770e+02,-2.930660e+02,-8.252000e+01,6.543000e+00,1.647460e+02,-1.372070e+02,4.013700e+01
1.786130e+02,-6.448240e+02,5.380900e+01,6.523400e+01,4.209000e+01,-4.560500e+01,-5.859000e+00,-1.306640e+02,3.867200e+01,-4.941400e+01,1.244140e+02,-3.831050e+02,-8.056600e+01,-2.601560e+02,-8.115200e+01,8.789000e+00,1.587890e+02,-1.459960e+02,3.623000e+01
1.745120e+02,-6.629880e+02,5.136700e+01,4.111300e+01,4.599600e+01,-4.892600e+01,-4.102000e+00,-1.426760e+02,4.472700e+01,-5.683600e+01,1.201170e+02,-3.819340e+02,-6.357400e+01,-2.746090e+02,-8.017600e+01,-4.395000e+00,1.544920e+02,-1.525390e+02,2.773400e+01
1.572270e+02,-6.854490e+02,4.316400e+01,3.144500e+01,3.896500e+01,-4.355500e+01,-1.308600e+01,-1.591800e+02,4.033200e+01,-7.050800e+01,9.843800e+01,-4.131840e+02,-6.084000e+01,-3.096680e+02,-9.023400e+01,-2.607400e+01,1.441410e+02,-1.633790e+02,1.582000e+01
1.655270e+02,-6.670900e+02,6.328100e+01,6.416000e+01,4.824200e+01,-5.429700e+01,-3.613000e+00,-1.411130e+02,4.140600e+01,-5.371100e+01,9.296900e+01,-4.254880e+02,-8.300800e+01,-2.865230e+02,-9.003900e+01,-8.398000e+00,1.574220e+02,-1.470700e+02,3.447300e+01
1.980470e+02,-6.305660e+02,9.707000e+01,6.738300e+01,7.050800e+01,-7.627000e+01,1.777300e+01,-1.097660e+02,5.107400e+01,-2.519500e+01,1.342770e+02,-3.592770e+02,-8.193400e+01,-2.529300e+02,-6.044900e+01,2.666000e+01,1.777340e+02,-1.212890e+02,6.142600e+01
2.116210e+02,-6.092770e+02,1.068360e+02,8.535200e+01,7.636700e+01,-8.056600e+01,2.675800e+01,-9.140600e+01,5.273400e+01,-1.084000e+01,1.497070e+02,-3.494140e+02,-8.291000e+01,-2.459960e+02,-4.150400e+01,4.306600e+01,1.865230e+02,-1.092770e+02,7.539100e+01
2.232420e+02,-5.845700e+02,9.580100e+01,1.128910e+02,7.421900e+01,-7.753900e+01,3.945300e+01,-7.002000e+01,6.523400e+01,8.594000e+00,1.651370e+02,-3.185550e+02,-8.408200e+01,-2.158200e+02,-2.519500e+01,6.562500e+01,1.961910e+02,-9.843800e+01,9.414100e+01
2.292970e+02,-5.791990e+02,1.148440e+02,1.154300e+02,8.095700e+01,-8.476600e+01,4.570300e+01,-6.093700e+01,6.699200e+01,1.699200e+01,1.637700e+02,-3.163090e+02,-9.091800e+01,-2.074220e+02,-1.240200e+01,7.841800e+01,2.002930e+02,-9.082000e+01,1.016600e+02
2.098630e+02,-6.072270e+02,1.035160e+02,9.384800e+01,6.650400e+01,-7.109400e+01,2.334000e+01,-8.671900e+01,4.814500e+01,-8.203000e+00,1.387700e+02,-3.543950e+02,-9.609400e+01,-2.486330e+02,-3.398400e+01,4.775400e+01,1.810550e+02,-1.133790e+02,7.373000e+01
1.819340e+02,-6.386720e+02,6.523400e+01,7.187500e+01,4.931600e+01,-5.263700e+01,6.348000e+00,-1.085940e+02,4.072300e+01,-2.861300e+01,1.189450e+02,-3.946290e+02,-9.873000e+01,-2.870120e+02,-6.054700e+01,1.787100e+01,1.578120e+02,-1.379880e+02,5.224600e+01
1.679690e+02,-6.572270e+02,5.439500e+01,4.951200e+01,50,-5.380900e+01,1.465000e+00,-1.317380e+02,4.189500e+01,-4.746100e+01,1.103520e+02,-3.973630e+02,-8.330100e+01,-2.897460e+02,-7.373000e+01,-3.516000e+00,1.462890e+02,-1.514650e+02,3.662100e+01
1.730470e+02,-6.669920e+02,5.058600e+01,3.623000e+01,4.599600e+01,-4.970700e+01,-9.800000e-02,-1.436520e+02,4.511700e+01,-5.634800e+01,1.256840e+02,-3.998050e+02,-5.898400e+01,-2.885740e+02,-7.627000e+01,-1.406200e+01,1.473630e+02,-1.560550e+02,2.851600e+01
1.610350e+02,-6.854490e+02,4.082000e+01,1.972700e+01,3.584000e+01,-4.228500e+01,-1.015600e+01,-1.552730e+02,3.955100e+01,-6.328100e+01,1.095700e+02,-4.180660e+02,-5.341800e+01,-3.052730e+02,-8.750000e+01,-1.953100e+01,1.387700e+02,-1.675780e+02,1.787100e+01
1.719730e+02,-6.646480e+02,6.552700e+01,3.857400e+01,5.371100e+01,-5.937500e+01,1.044900e+01,-1.380860e+02,5.078100e+01,-4.443400e+01,1.228520e+02,-3.934570e+02,-6.142600e+01,-2.891600e+02,-6.621100e+01,3.613000e+00,1.541020e+02,-1.473630e+02,4.013700e+01
1.922850e+02,-6.344730e+02,8.056600e+01,6.543000e+01,7.216800e+01,-7.519500e+01,3.847700e+01,-1.175780e+02,7.011700e+01,-2.597700e+01,1.454100e+02,-3.772460e+02,-6.748000e+01,-2.700200e+02,-4.267600e+01,2.343800e+01,1.708980e+02,-1.228520e+02,6.630900e+01
2.082030e+02,-6.139650e+02,9.628900e+01,8.613300e+01,7.978500e+01,-8.144500e+01,4.921900e+01,-1.023440e+02,7.334000e+01,-1.347700e+01,1.547850e+02,-3.681640e+02,-8.105500e+01,-2.568360e+02,-3.505900e+01,3.603500e+01,1.823240e+02,-1.082030e+02,8.007800e+01
2.202150e+02,-5.909180e+02,1.153320e+02,1.165040e+02,8.193400e+01,-8.320300e+01,3.867200e+01,-8.769500e+01,4.824200e+01,-4.199000e+00,1.625980e+02,-3.564450e+02,-8.632800e+01,-2.404300e+02,-2.910200e+01,5.468800e+01,1.951170e+02,-9.902300e+01,8.359400e+01
2.281250e+02,-5.756840e+02,1.174800e+02,1.309570e+02,8.310500e+01,-8.623000e+01,4.502000e+01,-7.207000e+01,4.951200e+01,4.102000e+00,1.757810e+02,-3.415040e+02,-9.423800e+01,-2.328120e+02,-1.513700e+01,6.718800e+01,2.032230e+02,-9.091800e+01,9.238300e+01
2.104490e+02,-6.045900e+02,9.521500e+01,9.697300e+01,6.933600e+01,-7.402300e+01,3.750000e+01,-9.746100e+01,5.293000e+01,-1.689500e+01,1.495120e+02,-3.625000e+02,-9.414100e+01,-2.546880e+02,-2.539100e+01,3.632800e+01,1.830080e+02,-1.114260e+02,7.216800e+01
1.902340e+02,-6.334960e+02,7.988300e+01,6.835900e+01,5.673800e+01,-6.005900e+01,1.855500e+01,-1.231450e+02,4.511700e+01,-3.847700e+01,1.193360e+02,-3.856450e+02,-8.418000e+01,-2.938480e+02,-4.824200e+01,9.766000e+00,1.642580e+02,-1.338870e+02,4.951200e+01
1.792970e+02,-6.505860e+02,7.109400e+01,50,5.058600e+01,-5.244100e+01,6.055000e+00,-1.369140e+02,4.521500e+01,-5.332000e+01,9.736300e+01,-3.895510e+02,-9.218800e+01,-2.975590e+02,-7.050800e+01,-2.930000e+00,1.557620e+02,-1.469730e+02,3.652300e+01
1.786130e+02,-6.614260e+02,6.523400e+01,4.111300e+01,5.293000e+01,-5.400400e+01,9.082000e+00,-1.548830e+02,5.400400e+01,-6.533200e+01,1.132810e+02,-3.940430e+02,-8.105500e+01,-2.839840e+02,-7.763700e+01,-1.933600e+01,1.541990e+02,-1.520510e+02,2.705100e+01
1.623050e+02,-6.858400e+02,4.072300e+01,1.787100e+01,4.570300e+01,-4.941400e+01,4.980000e+00,-1.711910e+02,5.224600e+01,-7.568400e+01,1.146480e+02,-4.179690e+02,-5.361300e+01,-3.077150e+02,-8.125000e+01,-3.837900e+01,1.402340e+02,-1.652340e+02,1.601600e+01
1.730470e+02,-6.632810e+02,5.810500e+01,4.150400e+01,5.332000e+01,-5.752000e+01,5.664000e+00,-1.529300e+02,4.033200e+01,-5.976600e+01,1.182620e+02,-4.038090e+02,-6.074200e+01,-3.058590e+02,-6.962900e+01,-1.279300e+01,1.556640e+02,-1.488280e+02,3.037100e+01
1.977540e+02,-6.316410e+02,9.003900e+01,7.041000e+01,6.562500e+01,-6.875000e+01,9.082000e+00,-1.290040e+02,2.998000e+01,-3.964800e+01,1.310550e+02,-3.841800e+02,-7.587900e+01,-2.809570e+02,-5.859400e+01,1.669900e+01,1.770510e+02,-1.259770e+02,4.707000e+01
2.298830e+02,-5.935550e+02,1.079100e+02,1.015630e+02,7.705100e+01,-7.949200e+01,2.216800e+01,-1.077150e+02,3.388700e+01,-1.728500e+01,1.741210e+02,-3.356450e+02,-6.777300e+01,-2.382810e+02,-3.535200e+01,4.492200e+01,1.997070e+02,-1.059570e+02,6.552700e+01
2.346680e+02,-5.783200e+02,1.186520e+02,1.213870e+02,7.890600e+01,-8.222700e+01,2.705100e+01,-9.404300e+01,3.398400e+01,-5.957000e+00,1.707030e+02,-3.330080e+02,-8.076200e+01,-2.316410e+02,-2.431600e+01,5.781300e+01,2.062500e+02,-9.775400e+01,7.490200e+01
2.463870e+02,-5.578130e+02,1.341800e+02,1.397460e+02,8.515600e+01,-9.062500e+01,3.935500e+01,-7.919900e+01,4.462900e+01,7.422000e+00,1.749020e+02,-3.208010e+02,-9.101600e+01,-2.124020e+02,-1.132800e+01,7.080100e+01,2.168950e+02,-8.584000e+01,8.818400e+01
2.275390e+02,-5.817380e+02,1.032230e+02,1.216800e+02,6.865200e+01,-75,2.412100e+01,-9.970700e+01,3.974600e+01,-1.357400e+01,1.592770e+02,-3.419920e+02,-8.886700e+01,-2.315430e+02,-3.261700e+01,4.511700e+01,1.975590e+02,-1.070310e+02,6.669900e+01
2.002930e+02,-6.163090e+02,7.373000e+01,9.326200e+01,4.990200e+01,-5.341800e+01,4.004000e+00,-1.236330e+02,3.027300e+01,-3.798800e+01,1.365230e+02,-3.603520e+02,-8.349600e+01,-2.883790e+02,-6.357400e+01,1.679700e+01,1.750980e+02,-1.314450e+02,4.296900e+01
1.859380e+02,-6.386720e+02,6.074200e+01,7.216800e+01,4.414100e+01,-4.677700e+01,-2.246000e+00,-1.436520e+02,3.457000e+01,-5.029300e+01,1.055660e+02,-3.921880e+02,-9.238300e+01,-2.934570e+02,-8.564500e+01,1.855000e+00,1.646480e+02,-1.448240e+02,3.007800e+01
1.820310e+02,-6.568360e+02,6.416000e+01,4.023400e+01,5.878900e+01,-6.191400e+01,4.297000e+00,-1.656250e+02,4.160200e+01,-6.601600e+01,6.396500e+01,-3.935550e+02,-9.160200e+01,-2.870120e+02,-8.203100e+01,-1.591800e+01,1.572270e+02,-1.509770e+02,1.748000e+01
1.751950e+02,-6.686520e+02,6.318400e+01,3.007800e+01,4.609400e+01,-5.087900e+01,-2.930000e+00,-1.832030e+02,3.818400e+01,-8.027300e+01,100,-4.055660e+02,-4.296900e+01,-3.072270e+02,-8.212900e+01,-3.046900e+01,1.519530e+02,-1.611330e+02,5.176000e+00
1.854490e+02,-6.455080e+02,7.568400e+01,6.669900e+01,5.332000e+01,-6.015600e+01,1.084000e+01,-1.652340e+02,4.296900e+01,-6.386700e+01,1.246090e+02,-4.162110e+02,-6.552700e+01,-2.907230e+02,-6.259800e+01,-9.473000e+00,1.687500e+02,-1.441410e+02,2.324200e+01
1.987300e+02,-6.268550e+02,9.150400e+01,7.285200e+01,7.832000e+01,-8.212900e+01,3.418000e+01,-1.420900e+02,5.332000e+01,-4.609400e+01,1.329100e+02,-3.933590e+02,-6.933600e+01,-2.673830e+02,-3.115200e+01,1.181600e+01,1.788090e+02,-1.229490e+02,4.423800e+01
2.231450e+02,-5.966800e+02,1.170900e+02,9.609400e+01,8.369100e+01,-8.632800e+01,4.228500e+01,-1.189450e+02,5.683600e+01,-2.617200e+01,1.522460e+02,-3.493160e+02,-5.830100e+01,-2.400390e+02,-1.816400e+01,3.544900e+01,1.973630e+02,-1.036130e+02,6.142600e+01
2.361330e+02,-5.704100e+02,1.025390e+02,1.169920e+02,7.900400e+01,-8.095700e+01,5.214800e+01,-9.736300e+01,7.021500e+01,-4.492000e+00,1.733400e+02,-3.108400e+02,-6.796900e+01,-2.161130e+02,-1.738300e+01,5.693400e+01,2.065430e+02,-9.423800e+01,8.056600e+01
2.489260e+02,-5.533200e+02,1.198240e+02,1.375980e+02,8.505900e+01,-8.867200e+01,4.882800e+01,-8.252000e+01,5.654300e+01,7.031000e+00,1.812500e+02,-2.962890e+02,-8.535200e+01,-2.134770e+02,-1.308600e+01,7.421900e+01,2.187500e+02,-8.232400e+01,8.730500e+01
2.299800e+02,-5.792970e+02,1.054690e+02,1.278320e+02,6.757800e+01,-7.314500e+01,2.080100e+01,-1.084960e+02,2.949200e+01,-1.904300e+01,1.560550e+02,-3.567380e+02,-9.179700e+01,-2.428710e+02,-4.453100e+01,4.589800e+01,2.022460e+02,-1.042970e+02,5.712900e+01
2.130860e+02,-6.036130e+02,9.013700e+01,9.111300e+01,5.742200e+01,-6.025400e+01,1.035200e+01,-1.278320e+02,3.125000e+01,-3.193400e+01,1.409180e+02,-3.515630e+02,-8.574200e+01,-2.451170e+02,-6.699200e+01,3.154300e+01,1.853520e+02,-1.241210e+02,4.072300e+01
1.977540e+02,-6.259770e+02,7.773400e+01,6.455100e+01,5.097700e+01,-5.234400e+01,2.148000e+00,-1.485350e+02,3.427700e+01,-4.873000e+01,1.293950e+02,-3.613280e+02,-7.617200e+01,-2.607420e+02,-8.115200e+01,1.425800e+01,1.752930e+02,-1.375000e+02,2.783200e+01
1.901370e+02,-6.410160e+02,6.123000e+01,5.566400e+01,4.941400e+01,-5.146500e+01,-1.172000e+00,-1.690430e+02,3.759800e+01,-6.562500e+01,1.225590e+02,-3.837890e+02,-6.543000e+01,-2.840820e+02,-8.193400e+01,-1.123000e+01,1.711910e+02,-1.448240e+02,1.650400e+01
1.712890e+02,-6.697270e+02,4.375000e+01,3.779300e+01,3.779300e+01,-4.345700e+01,-1.445300e+01,-1.876950e+02,3.408200e+01,-8.574200e+01,9.638700e+01,-4.193360e+02,-6.709000e+01,-3.183590e+02,-1.021480e+02,-3.642600e+01,1.562500e+02,-1.615230e+02,3.910000e-01
1.763670e+02,-6.559570e+02,5.390600e+01,5.312500e+01,4.443400e+01,-5.185500e+01,-4.980000e+00,-1.602540e+02,4.228500e+01,-6.572300e+01,9.668000e+01,-4.182620e+02,-7.773400e+01,-3.245120e+02,-9.834000e+01,-1.084000e+01,1.653320e+02,-1.460940e+02,2.187500e+01
2.011720e+02,-6.235350e+02,7.919900e+01,7.548800e+01,6.494100e+01,-6.904300e+01,1.630900e+01,-1.242190e+02,5.507800e+01,-3.701200e+01,1.315430e+02,-3.757810e+02,-6.084000e+01,-2.678710e+02,-6.699200e+01,2.412100e+01,1.846680e+02,-1.207030e+02,4.960900e+01
2.200200e+02,-5.966800e+02,9.960900e+01,9.716800e+01,7.822300e+01,-8.007800e+01,3.398400e+01,-1.101560e+02,6.562500e+01,-1.884800e+01,1.654300e+02,-3.275390e+02,-7.002000e+01,-2.129880e+02,-4.150400e+01,4.658200e+01,1.992190e+02,-1.023440e+02,6.767600e+01
2.185550e+02,-5.885740e+02,1.156250e+02,1.093750e+02,7.763700e+01,-7.939500e+01,3.271500e+01,-9.902300e+01,6.201200e+01,-1.660200e+01,1.459960e+02,-3.293950e+02,-1.017580e+02,-2.192380e+02,-4.502000e+01,5.039100e+01,2.005860e+02,-9.687500e+01,7.539100e+01
2.301760e+02,-5.691410e+02,1.286130e+02,1.298830e+02,8.486300e+01,-8.896500e+01,4.384800e+01,-8.027300e+01,6.904300e+01,-9.770000e-01,1.600590e+02,-3.144530e+02,-1.074220e+02,-2.021480e+02,-2.841800e+01,6.582000e+01,2.104490e+02,-8.291000e+01,9.111300e+01
2.185550e+02,-5.878910e+02,1.018550e+02,1.149410e+02,7.021500e+01,-7.675800e+01,3.056600e+01,-9.589800e+01,6.377000e+01,-1.562500e+01,1.576170e+02,-3.440430e+02,-9.970700e+01,-2.287110e+02,-4.111300e+01,4.277300e+01,1.959960e+02,-1.011720e+02,7.226600e+01
1.954100e+02,-6.176760e+02,7.451200e+01,9.248000e+01,5.107400e+01,-5.576200e+01,9.863000e+00,-1.166990e+02,5.595700e+01,-3.310500e+01,1.310550e+02,-3.672850e+02,-1.018550e+02,-2.576170e+02,-6.943400e+01,1.875000e+01,1.760740e+02,-1.246090e+02,5.087900e+01
1.755860e+02,-6.475590e+02,5.918000e+01,6.455100e+01,4.345700e+01,-4.443400e+01,2.148000e+00,-1.334960e+02,6.074200e+01,-4.609400e+01,1.113280e+02,-3.833010e+02,-9.589800e+01,-2.828130e+02,-9.091800e+01,1.172000e+00,1.601560e+02,-1.403320e+02,3.857400e+01
1.773440e+02,-6.562500e+02,5.175800e+01,4.863300e+01,4.599600e+01,-4.589800e+01,-1.855000e+00,-1.414060e+02,5.742200e+01,-5.293000e+01,9.941400e+01,-3.913090e+02,-8.242200e+01,-2.825200e+02,-8.837900e+01,-3.809000e+00,1.588870e+02,-1.450200e+02,3.027300e+01
1.626950e+02,-6.785160e+02,4.013700e+01,2.617200e+01,3.847700e+01,-4.375000e+01,-1.455100e+01,-1.614260e+02,5.146500e+01,-6.953100e+01,1.045900e+02,-4.166020e+02,-5.966800e+01,-3.030270e+02,-9.726600e+01,-2.334000e+01,1.455080e+02,-1.611330e+02,1.318400e+01
1.690430e+02,-6.635740e+02,5.009800e+01,4.873000e+01,4.648400e+01,-5.439500e+01,2.051000e+00,-1.457030e+02,6.396500e+01,-5.488300e+01,1.153320e+02,-3.921880e+02,-5.996100e+01,-2.768550e+02,-8.691400e+01,-2.051000e+00,1.576170e+02,-1.458010e+02,3.252000e+01
1.894530e+02,-6.395510e+02,8.203100e+01,6.845700e+01,6.767600e+01,-7.294900e+01,2.949200e+01,-1.249020e+02,7.910200e+01,-3.652300e+01,1.279300e+02,-3.809570e+02,-5.673800e+01,-2.628910e+02,-4.834000e+01,1.767600e+01,1.752930e+02,-1.212890e+02,5.644500e+01
2.084960e+02,-6.132810e+02,1.007810e+02,8.271500e+01,7.998000e+01,-8.349600e+01,3.476600e+01,-1.029300e+02,6.875000e+01,-1.630900e+01,1.479490e+02,-3.510740e+02,-5.468800e+01,-2.416020e+02,-2.080100e+01,4.072300e+01,1.889650e+02,-1.034180e+02,7.021500e+01
2.178710e+02,-5.899410e+02,1.070310e+02,1.094730e+02,7.607400e+01,-7.978500e+01,2.421900e+01,-8.339800e+01,5.136700e+01,-8.790000e-01,1.543950e+02,-3.264650e+02,-7.919900e+01,-2.195310e+02,-2.138700e+01,6.445300e+01,1.984370e+02,-9.560500e+01,7.714800e+01
2.255860e+02,-5.727540e+02,1.103520e+02,1.344730e+02,8.037100e+01,-8.496100e+01,3.701200e+01,-6.240200e+01,6.513700e+01,1.543000e+01,1.568360e+02,-3.342770e+02,-1.107420e+02,-2.171870e+02,-1.630900e+01,7.841800e+01,2.072270e+02,-8.320300e+01,9.482400e+01
2.087890e+02,-5.995120e+02,9.726600e+01,1.050780e+02,7.187500e+01,-7.900400e+01,2.509800e+01,-8.574200e+01,6.318400e+01,-8.691000e+00,1.396480e+02,-3.607420e+02,-1.072270e+02,-2.379880e+02,-4.414100e+01,4.814500e+01,1.873050e+02,-1.031250e+02,7.412100e+01
1.953130e+02,-6.197270e+02,8.476600e+01,8.085900e+01,5.449200e+01,-5.918000e+01,1.005900e+01,-1.037110e+02,6.171900e+01,-1.953100e+01,1.401370e+02,-3.532230e+02,-8.818400e+01,-2.671880e+02,-6.689500e+01,3.388700e+01,1.740230e+02,-1.213870e+02,5.703100e+01
1.739260e+02,-6.475590e+02,7.509800e+01,6.718800e+01,4.492200e+01,-4.736300e+01,-4.980000e+00,-1.282230e+02,5.527300e+01,-4.228500e+01,1.126950e+02,-3.861330e+02,-8.603500e+01,-2.875000e+02,-8.779300e+01,9.766000e+00,1.598630e+02,-1.389650e+02,3.779300e+01
1.764650e+02,-6.551760e+02,4.824200e+01,5.419900e+01,4.834000e+01,-5.117200e+01,1.025400e+01,-1.348630e+02,7.451200e+01,-4.355500e+01,1.343750e+02,-3.862300e+02,-5.234400e+01,-2.669920e+02,-7.168000e+01,8.203000e+00,1.595700e+02,-1.412110e+02,3.974600e+01
1.613280e+02,-6.798830e+02,3.183600e+01,2.441400e+01,4.257800e+01,-4.785200e+01,3.711000e+00,-1.547850e+02,7.060500e+01,-6.074200e+01,1.064450e+02,-4.044920e+02,-4.316400e+01,-2.903320e+02,-7.812500e+01,-1.416000e+01,1.436520e+02,-1.566410e+02,2.402300e+01
1.678710e+02,-6.657230e+02,5.048800e+01,4.296900e+01,5.244100e+01,-5.830100e+01,1.367200e+01,-1.400390e+02,7.099600e+01,-5.449200e+01,1.015630e+02,-4.080080e+02,-5.761700e+01,-2.870120e+02,-6.611300e+01,2.637000e+00,1.543950e+02,-1.424800e+02,3.750000e+01
1.922850e+02,-6.345700e+02,8.525400e+01,6.914100e+01,7.099600e+01,-7.548800e+01,3.388700e+01,-1.175780e+02,7.773400e+01,-3.564500e+01,1.325200e+02,-3.617190e+02,-6.044900e+01,-2.588870e+02,-4.414100e+01,2.988300e+01,1.758790e+02,-1.169920e+02,5.976600e+01
2.112300e+02,-6.143550e+02,1.124020e+02,9.033200e+01,8.369100e+01,-8.574200e+01,4.511700e+01,-1.071290e+02,7.646500e+01,-1.865200e+01,1.577150e+02,-3.494140e+02,-6.084000e+01,-2.458010e+02,-2.568400e+01,4.541000e+01,1.897460e+02,-9.941400e+01,7.373000e+01
2.135740e+02,-5.997070e+02,9.326200e+01,1.031250e+02,8.466800e+01,-8.671900e+01,4.824200e+01,-9.013700e+01,7.773400e+01,2.930000e-01,1.489260e+02,-3.297850e+02,-8.535200e+01,-2.223630e+02,-1.992200e+01,6.494100e+01,1.896480e+02,-9.511700e+01,8.623000e+01
2.246090e+02,-5.814450e+02,1.119140e+02,1.204100e+02,9.755900e+01,-1.023440e+02,5.625000e+01,-7.255900e+01,7.910200e+01,1.523400e+01,1.291020e+02,-3.131840e+02,-9.130900e+01,-2.133790e+02,-3.418000e+00,7.753900e+01,1.986330e+02,-8.271500e+01,9.834000e+01
2.201170e+02,-5.913090e+02,1.032230e+02,1.184570e+02,7.304700e+01,-7.841800e+01,4.218800e+01,-8.046900e+01,7.685500e+01,3.809000e+00,1.752930e+02,-3.503910e+02,-6.669900e+01,-2.455080e+02,-2.041000e+01,6.337900e+01,1.931640e+02,-9.589800e+01,8.505900e+01
1.944340e+02,-6.229490e+02,7.714800e+01,7.187500e+01,5.615200e+01,-6.084000e+01,2.636700e+01,-9.648400e+01,7.568400e+01,-1.181600e+01,1.635740e+02,-3.666020e+02,-7.177700e+01,-2.685550e+02,-4.599600e+01,5.009800e+01,1.700200e+02,-1.191410e+02,6.640600e+01
1.783200e+02,-6.439450e+02,6.787100e+01,5.244100e+01,5.361300e+01,-5.722700e+01,1.728500e+01,-1.229490e+02,7.412100e+01,-2.880900e+01,1.284180e+02,-3.547850e+02,-6.259800e+01,-2.471680e+02,-5.986300e+01,3.388700e+01,1.585940e+02,-1.354490e+02,4.921900e+01
1.763670e+02,-6.563480e+02,6.601600e+01,4.863300e+01,5.625000e+01,-5.996100e+01,1.533200e+01,-1.426760e+02,7.255900e+01,-4.238300e+01,1.207030e+02,-3.730470e+02,-5.488300e+01,-2.532230e+02,-6.416000e+01,1.093700e+01,1.566410e+02,-1.413090e+02,3.750000e+01
1.653320e+02,-6.820310e+02,4.179700e+01,2.158200e+01,4.306600e+01,-4.824200e+01,4.688000e+00,-1.607420e+02,6.494100e+01,-5.927700e+01,1.122070e+02,-4.094730e+02,-4.462900e+01,-2.924800e+02,-7.402300e+01,-1.084000e+01,1.435550e+02,-1.581050e+02,2.080100e+01
1.662110e+02,-6.687500e+02,4.921900e+01,3.632800e+01,4.814500e+01,-5.595700e+01,1.357400e+01,-1.415040e+02,6.943400e+01,-4.404300e+01,1.125980e+02,-3.898440e+02,-5.087900e+01,-2.741210e+02,-6.484400e+01,1.064500e+01,1.526370e+02,-1.450200e+02,3.623000e+01
1.917970e+02,-6.305660e+02,7.421900e+01,7.187500e+01,6.923800e+01,-7.490200e+01,4.218800e+01,-1.176760e+02,8.964800e+01,-1.894500e+01,1.536130e+02,-3.597660e+02,-4.882800e+01,-2.473630e+02,-2.705100e+01,3.525400e+01,1.759770e+02,-1.178710e+02,6.396500e+01
2.136720e+02,-6.061520e+02,9.755900e+01,9.531200e+01,8.252000e+01,-8.505900e+01,5.371100e+01,-1.002930e+02,9.160200e+01,-2.832000e+00,1.702150e+02,-3.459960e+02,-5.947300e+01,-2.371090e+02,-1.240200e+01,5.146500e+01,1.904300e+02,-9.960900e+01,7.890600e+01
2.152340e+02,-5.959960e+02,9.931600e+01,1.159180e+02,8.017600e+01,-8.281200e+01,5.029300e+01,-9.404300e+01,8.281200e+01,2.734000e+00,1.718750e+02,-3.434570e+02,-6.269500e+01,-2.252930e+02,-1.044900e+01,5.888700e+01,1.937500e+02,-9.502000e+01,8.418000e+01
2.304690e+02,-5.688480e+02,1.183590e+02,1.342770e+02,8.964800e+01,-9.433600e+01,6.142600e+01,-7.158200e+01,8.877000e+01,2.236300e+01,1.849610e+02,-3.076170e+02,-7.529300e+01,-1.914060e+02,3.125000e+00,8.427700e+01,2.087890e+02,-7.890600e+01,1.022460e+02
2.190430e+02,-5.887700e+02,1.117190e+02,1.064450e+02,7.812500e+01,-8.427700e+01,4.570300e+01,-8.828100e+01,7.812500e+01,2.734000e+00,1.618160e+02,-3.122070e+02,-7.880900e+01,-2.149410e+02,-1.650400e+01,6.093700e+01,1.940430e+02,-9.648400e+01,8.085900e+01
1.899410e+02,-6.259770e+02,7.646500e+01,8.271500e+01,5.957000e+01,-6.416000e+01,2.587900e+01,-1.186520e+02,6.875000e+01,-2.529300e+01,1.387700e+02,-3.569340e+02,-7.460900e+01,-2.568360e+02,-3.525400e+01,2.900400e+01,1.698240e+02,-1.225590e+02,5.449200e+01
1.739260e+02,-6.475590e+02,6.132800e+01,6.669900e+01,5.449200e+01,-5.595700e+01,1.787100e+01,-1.371090e+02,7.158200e+01,-3.818400e+01,1.307620e+02,-3.921880e+02,-5.722700e+01,-2.717770e+02,-4.384800e+01,1.367200e+01,1.576170e+02,-1.375980e+02,3.935500e+01
1.757810e+02,-6.533200e+02,5.703100e+01,5.585900e+01,5.654300e+01,-5.722700e+01,1.787100e+01,-1.475590e+02,7.636700e+01,-4.638700e+01,1.273440e+02,-3.993160e+02,-5.752000e+01,-2.822270e+02,-5.068400e+01,3.711000e+00,1.583010e+02,-1.413090e+02,3.115200e+01
1.541020e+02,-6.871090e+02,3.798800e+01,2.031300e+01,4.638700e+01,-4.990200e+01,2.246000e+00,-1.719730e+02,6.523400e+01,-7.099600e+01,9.570300e+01,-4.222660e+02,-5.957000e+01,-3.184570e+02,-7.168000e+01,-2.607400e+01,1.382810e+02,-1.608400e+02,7.617000e+00
1.736330e+02,-6.642580e+02,6.611300e+01,4.062500e+01,5.322300e+01,-6.015600e+01,1.289100e+01,-1.589840e+02,7.070300e+01,-5.537100e+01,1.194340e+02,-3.876950e+02,-4.384800e+01,-2.755860e+02,-6.123000e+01,-1.465000e+00,1.581050e+02,-1.447270e+02,2.304700e+01
1.988280e+02,-6.277340e+02,8.369100e+01,7.011700e+01,7.002000e+01,-7.548800e+01,3.662100e+01,-1.328130e+02,8.486300e+01,-3.095700e+01,1.481450e+02,-3.570310e+02,-3.779300e+01,-2.480470e+02,-3.759800e+01,2.734400e+01,1.806640e+02,-1.189450e+02,4.990200e+01
2.175780e+02,-6.020510e+02,9.453100e+01,9.521500e+01,8.193400e+01,-8.525400e+01,5.097700e+01,-1.140630e+02,8.369100e+01,-1.494100e+01,1.604490e+02,-3.326170e+02,-4.814500e+01,-2.360350e+02,-1.484400e+01,3.984400e+01,1.945310e+02,-1.006840e+02,6.709000e+01
2.205080e+02,-5.899410e+02,1.032230e+02,1.148440e+02,8.027300e+01,-8.359400e+01,4.834000e+01,-1.039060e+02,7.060500e+01,-8.691000e+00,1.478520e+02,-3.161130e+02,-6.230500e+01,-2.213870e+02,-1.308600e+01,4.843800e+01,1.981450e+02,-9.580100e+01,7.334000e+01
2.333980e+02,-5.729490e+02,1.219730e+02,1.286130e+02,8.896500e+01,-9.277300e+01,5.888700e+01,-7.959000e+01,7.294900e+01,9.863000e+00,1.804690e+02,-3.081050e+02,-8.076200e+01,-2.062500e+02,-3.809000e+00,7.587900e+01,2.102540e+02,-7.900400e+01,9.179700e+01
2.173830e+02,-5.940430e+02,1.065430e+02,1.062500e+02,7.480500e+01,-8.017600e+01,4.150400e+01,-9.472700e+01,6.181600e+01,-6.348000e+00,1.684570e+02,-3.375980e+02,-9.570300e+01,-2.369140e+02,-2.646500e+01,5.478500e+01,1.936520e+02,-9.550800e+01,7.441400e+01
1.958010e+02,-6.196290e+02,1.003910e+02,8.798800e+01,6.171900e+01,-6.523400e+01,1.435500e+01,-1.203120e+02,4.599600e+01,-2.763700e+01,1.217770e+02,-3.574220e+02,-1.014650e+02,-2.435550e+02,-5.478500e+01,3.154300e+01,1.772460e+02,-1.182620e+02,4.931600e+01
1.803710e+02,-6.364260e+02,6.953100e+01,7.802700e+01,4.707000e+01,-4.990200e+01,-1.465000e+00,-1.437500e+02,3.408200e+01,-4.550800e+01,1.134770e+02,-3.677730e+02,-7.851600e+01,-2.635740e+02,-6.543000e+01,9.766000e+00,1.658200e+02,-1.366210e+02,3.154300e+01
1.771480e+02,-6.543950e+02,4.765600e+01,6.074200e+01,4.472700e+01,-4.736300e+01,-8.790000e-01,-1.548830e+02,3.681600e+01,-5.459000e+01,1.320310e+02,-3.984370e+02,-5.419900e+01,-2.854490e+02,-6.142600e+01,-3.125000e+00,1.614260e+02,-1.419920e+02,2.558600e+01
1.582030e+02,-6.864260e+02,3.408200e+01,2.412100e+01,3.828100e+01,-4.287100e+01,-8.594000e+00,-1.705080e+02,3.750000e+01,-7.314500e+01,1.084960e+02,-4.199220e+02,-4.697300e+01,-3.025390e+02,-7.998000e+01,-2.324200e+01,1.420900e+02,-1.583980e+02,1.015600e+01
1.625980e+02,-6.746090e+02,5.351600e+01,3.369100e+01,4.980500e+01,-5.664100e+01,7.422000e+00,-1.514650e+02,5.253900e+01,-5.888700e+01,8.994100e+01,-4.019530e+02,-6.093700e+01,-2.826170e+02,-7.753900e+01,-7.520000e+00,1.492190e+02,-1.457030e+02,2.900400e+01
1.887700e+02,-6.381840e+02,7.919900e+01,6.621100e+01,6.582000e+01,-7.187500e+01,2.207000e+01,-1.287110e+02,4.951200e+01,-3.710900e+01,1.291990e+02,-3.662110e+02,-5.996100e+01,-2.544920e+02,-5.214800e+01,1.787100e+01,1.735350e+02,-1.197270e+02,5.253900e+01
2.102540e+02,-6.080080e+02,9.394500e+01,9.531200e+01,7.558600e+01,-7.939500e+01,3.144500e+01,-1.115230e+02,4.804700e+01,-1.933600e+01,1.633790e+02,-3.463870e+02,-6.640600e+01,-2.364260e+02,-3.447300e+01,3.623000e+01,1.917970e+02,-1.004880e+02,7.041000e+01
2.143550e+02,-5.971680e+02,1.011720e+02,1.057620e+02,7.548800e+01,-7.724600e+01,3.671900e+01,-9.638700e+01,5.361300e+01,-8.691000e+00,1.632810e+02,-3.339840e+02,-8.398400e+01,-2.286130e+02,-3.447300e+01,4.863300e+01,1.941410e+02,-9.423800e+01,8.056600e+01
2.223630e+02,-5.781250e+02,1.115230e+02,1.265630e+02,8.476600e+01,-8.769500e+01,5.507800e+01,-7.783200e+01,6.513700e+01,5.664000e+00,175,-3.125980e+02,-9.189500e+01,-2.117190e+02,-1.171900e+01,6.728500e+01,2.034180e+02,-7.900400e+01,9.970700e+01
2.126950e+02,-5.939450e+02,1.004880e+02,1.164060e+02,7.119100e+01,-7.607400e+01,3.232400e+01,-9.101600e+01,3.935500e+01,-8.496000e+00,1.600590e+02,-3.420900e+02,-9.668000e+01,-2.406250e+02,-3.818400e+01,4.668000e+01,1.916020e+02,-9.482400e+01,7.871100e+01
1.845700e+02,-6.307620e+02,8.056600e+01,8.671900e+01,5.019500e+01,-5.488300e+01,5.371000e+00,-1.086910e+02,2.568400e+01,-2.646500e+01,1.155270e+02,-3.862300e+02,-1.049800e+02,-2.840820e+02,-7.851600e+01,1.777300e+01,1.672850e+02,-1.203120e+02,5.419900e+01
1.659180e+02,-6.594730e+02,6.660200e+01,4.902300e+01,4.130900e+01,-4.531200e+01,-3.125000e+00,-1.217770e+02,3.183600e+01,-3.564500e+01,9.296900e+01,-3.833010e+02,-9.814500e+01,-2.701170e+02,-9.394500e+01,7.910000e+00,1.491210e+02,-1.375980e+02,4.209000e+01
1.748050e+02,-6.576170e+02,5.654300e+01,4.882800e+01,5.048800e+01,-5.293000e+01,4.297000e+00,-1.383790e+02,4.345700e+01,-4.668000e+01,1.109380e+02,-3.712890e+02,-7.334000e+01,-2.499020e+02,-7.968800e+01,1.465000e+00,1.546870e+02,-1.385740e+02,3.652300e+01
1.593750e+02,-6.841800e+02,3.593800e+01,1.962900e+01,3.945300e+01,-4.257800e+01,-8.984000e+00,-1.588870e+02,3.222700e+01,-6.816400e+01,1.053710e+02,-4.010740e+02,-6.240200e+01,-2.830080e+02,-9.179700e+01,-1.640600e+01,1.410160e+02,-1.545900e+02,1.679700e+01
1.604490e+02,-6.786130e+02,3.925800e+01,2.353500e+01,4.785200e+01,-5.380900e+01,1.660000e+00,-1.502930e+02,4.043000e+01,-5.791000e+01,1.014650e+02,-3.935550e+02,-7.490200e+01,-2.828130e+02,-7.978500e+01,-7.129000e+00,1.448240e+02,-1.476560e+02,2.890600e+01
1.773440e+02,-6.545900e+02,7.050800e+01,4.853500e+01,7.011700e+01,-7.607400e+01,2.236300e+01,-1.340820e+02,5.195300e+01,-4.414100e+01,1.013670e+02,-3.769530e+02,-7.832000e+01,-2.665040e+02,-5.859400e+01,8.398000e+00,1.614260e+02,-1.261720e+02,4.931600e+01
2.107420e+02,-6.157230e+02,9.775400e+01,8.310500e+01,7.617200e+01,-8.017600e+01,3.740200e+01,-1.050780e+02,5.712900e+01,-1.865200e+01,1.696290e+02,-3.550780e+02,-5.332000e+01,-2.450200e+02,-3.388700e+01,3.847700e+01,1.875980e+02,-1.007810e+02,7.158200e+01
2.136720e+02,-6.009770e+02,9.482400e+01,9.902300e+01,7.636700e+01,-7.919900e+01,3.427700e+01,-9.101600e+01,4.697300e+01,-6.250000e+00,1.509770e+02,-3.383790e+02,-8.320300e+01,-2.291990e+02,-3.115200e+01,5.585900e+01,1.898440e+02,-9.541000e+01,7.880900e+01
2.268550e+02,-5.770510e+02,1.167970e+02,1.319340e+02,8.554700e+01,-8.837900e+01,4.716800e+01,-7.265600e+01,5.644500e+01,1.093700e+01,1.733400e+02,-3.217770e+02,-8.847700e+01,-2.109380e+02,-2.148400e+01,7.246100e+01,2.050780e+02,-7.919900e+01,9.726600e+01
2.168950e+02,-5.914060e+02,1.017580e+02,1.291020e+02,6.933600e+01,-7.421900e+01,3.798800e+01,-8.662100e+01,5.459000e+01,-4.102000e+00,1.774410e+02,-3.567380e+02,-7.714800e+01,-2.322270e+02,-3.418000e+01,5.019500e+01,1.946290e+02,-9.267600e+01,8.300800e+01
1.934570e+02,-6.235350e+02,7.871100e+01,8.046900e+01,5.615200e+01,-6.025400e+01,1.923800e+01,-1.099610e+02,4.511700e+01,-2.470700e+01,1.478520e+02,-3.614260e+02,-6.132800e+01,-2.644530e+02,-4.677700e+01,2.539100e+01,1.701170e+02,-1.168950e+02,5.927700e+01
1.773440e+02,-6.458980e+02,6.152300e+01,5.390600e+01,4.541000e+01,-4.746100e+01,5.762000e+00,-1.226560e+02,3.945300e+01,-3.427700e+01,1.280270e+02,-3.744140e+02,-7.451200e+01,-2.718750e+02,-6.611300e+01,1.679700e+01,1.564450e+02,-1.343750e+02,4.462900e+01
1.795900e+02,-6.552730e+02,6.865200e+01,4.736300e+01,5.253900e+01,-5.429700e+01,4.395000e+00,-1.396480e+02,3.808600e+01,-4.257800e+01,1.261720e+02,-3.783200e+02,-6.210900e+01,-2.629880e+02,-6.132800e+01,4.492000e+00,1.596680e+02,-1.379880e+02,3.466800e+01
1.610350e+02,-6.815430e+02,4.189500e+01,2.392600e+01,4.169900e+01,-4.492200e+01,-1.152300e+01,-1.599610e+02,2.871100e+01,-6.015600e+01,1.017580e+02,-4.096680e+02,-4.882800e+01,-2.912110e+02,-7.529300e+01,-1.220700e+01,1.435550e+02,-1.550780e+02,1.445300e+01
1.666020e+02,-6.691410e+02,4.326200e+01,3.447300e+01,4.482400e+01,-5.302700e+01,-6.840000e-01,-1.484370e+02,3.945300e+01,-4.960900e+01,1.042970e+02,-3.875980e+02,-5.791000e+01,-2.894530e+02,-7.587900e+01,3.613000e+00,1.507810e+02,-1.469730e+02,2.812500e+01
1.914060e+02,-6.386720e+02,7.226600e+01,6.943400e+01,6.259800e+01,-6.884800e+01,2.353500e+01,-1.293950e+02,5.156200e+01,-3.427700e+01,1.339840e+02,-3.713870e+02,-6.210900e+01,-2.673830e+02,-5.127000e+01,1.767600e+01,1.736330e+02,-1.225590e+02,5.224600e+01
2.099610e+02,-6.133790e+02,9.775400e+01,8.916000e+01,7.978500e+01,-8.320300e+01,4.716800e+01,-1.123050e+02,6.474600e+01,-1.904300e+01,1.592770e+02,-3.572270e+02,-5.966800e+01,-2.462890e+02,-2.470700e+01,3.173800e+01,1.885740e+02,-1.029300e+02,7.187500e+01
2.143550e+02,-6.004880e+02,1.033200e+02,9.140600e+01,8.144500e+01,-8.330100e+01,4.931600e+01,-9.843800e+01,6.308600e+01,-6.055000e+00,1.669920e+02,-3.381840e+02,-6.337900e+01,-2.416020e+02,-1.562500e+01,4.209000e+01,1.892580e+02,-9.755900e+01,8.134800e+01
2.324220e+02,-5.682620e+02,1.400390e+02,1.270510e+02,9.287100e+01,-9.472700e+01,5.214800e+01,-8.173800e+01,5.800800e+01,1.005900e+01,1.572270e+02,-3.055660e+02,-9.492200e+01,-1.973630e+02,-9.766000e+00,6.220700e+01,2.082030e+02,-7.939500e+01,9.580100e+01
2.211910e+02,-5.876950e+02,1.166990e+02,1.104490e+02,8.281200e+01,-8.671900e+01,4.873000e+01,-9.326200e+01,6.005900e+01,-1.950000e-01,1.656250e+02,-3.275390e+02,-8.193400e+01,-2.144530e+02,-8.398000e+00,4.570300e+01,1.936520e+02,-9.209000e+01,8.486300e+01
2.049800e+02,-6.138670e+02,7.060500e+01,8.916000e+01,5.859400e+01,-6.259800e+01,3.378900e+01,-1.106450e+02,5.849600e+01,-1.406200e+01,1.656250e+02,-3.588870e+02,-7.050800e+01,-2.415040e+02,-2.558600e+01,3.339800e+01,1.749020e+02,-1.160160e+02,6.611300e+01
1.863280e+02,-6.363280e+02,6.084000e+01,6.533200e+01,4.765600e+01,-5.078100e+01,1.611300e+01,-1.262700e+02,5.146500e+01,-2.558600e+01,1.351560e+02,-3.601560e+02,-6.796900e+01,-2.509770e+02,-5.888700e+01,2.509800e+01,1.610350e+02,-1.346680e+02,4.873000e+01
1.797850e+02,-6.540040e+02,5.966800e+01,4.531200e+01,5.039100e+01,-5.253900e+01,1.591800e+01,-1.404300e+02,5.976600e+01,-3.525400e+01,1.281250e+02,-3.779300e+02,-5.937500e+01,-2.682620e+02,-6.582000e+01,1.054700e+01,1.571290e+02,-1.401370e+02,4.043000e+01
1.616210e+02,-6.848630e+02,3.828100e+01,1.572300e+01,4.296900e+01,-4.814500e+01,6.250000e+00,-1.663090e+02,5.908200e+01,-6.152300e+01,1.108400e+02,-4.162110e+02,-5.048800e+01,-3.004880e+02,-7.304700e+01,-2.168000e+01,1.380860e+02,-1.586910e+02,1.884800e+01
1.564450e+02,-6.814450e+02,4.550800e+01,2.177700e+01,5.107400e+01,-5.878900e+01,1.777300e+01,-1.603520e+02,7.119100e+01,-5.478500e+01,1.142580e+02,-3.976560e+02,-4.052700e+01,-2.953120e+02,-6.298800e+01,-1.210900e+01,1.402340e+02,-1.521480e+02,2.851600e+01
1.780270e+02,-6.457030e+02,6.826200e+01,5.918000e+01,6.337900e+01,-6.816400e+01,3.525400e+01,-1.322270e+02,8.115200e+01,-3.193400e+01,1.328130e+02,-3.765630e+02,-5.371100e+01,-2.806640e+02,-4.668000e+01,1.523400e+01,1.639650e+02,-1.270510e+02,5.419900e+01
1.967770e+02,-6.202150e+02,7.587900e+01,8.418000e+01,7.402300e+01,-7.695300e+01,4.355500e+01,-1.121090e+02,7.656300e+01,-1.826200e+01,1.524410e+02,-3.853520e+02,-6.201200e+01,-2.776370e+02,-2.968800e+01,3.017600e+01,1.789060e+02,-1.087890e+02,6.923800e+01
2.112300e+02,-5.956050e+02,8.681600e+01,1.013670e+02,7.675800e+01,-7.880900e+01,3.955100e+01,-1.023440e+02,6.796900e+01,-7.129000e+00,1.564450e+02,-3.322270e+02,-6.464800e+01,-2.241210e+02,-2.168000e+01,4.873000e+01,1.882810e+02,-1.011720e+02,7.548800e+01
2.317380e+02,-5.639650e+02,1.144530e+02,1.350590e+02,9.033200e+01,-9.375000e+01,5.673800e+01,-8.085900e+01,8.027300e+01,1.640600e+01,1.707030e+02,-2.908200e+02,-6.875000e+01,-1.782230e+02,3.320000e+00,8.203100e+01,2.078120e+02,-8.056600e+01,9.668000e+01
2.239260e+02,-5.754880e+02,1.088870e+02,1.291990e+02,8.144500e+01,-8.623000e+01,5.039100e+01,-9.238300e+01,7.597700e+01,3.613000e+00,1.745120e+02,-3.207030e+02,-8.095700e+01,-2.105470e+02,-5.957000e+00,5.898400e+01,1.995120e+02,-9.023400e+01,8.359400e+01
2.000980e+02,-6.125980e+02,8.554700e+01,8.144500e+01,6.699200e+01,-7.207000e+01,3.662100e+01,-1.176760e+02,7.607400e+01,-1.855500e+01,1.458010e+02,-3.396480e+02,-8.701200e+01,-2.338870e+02,-2.568400e+01,3.525400e+01,1.757810e+02,-1.151370e+02,6.084000e+01
1.773440e+02,-6.433590e+02,6.884800e+01,5.712900e+01,5.390600e+01,-5.664100e+01,1.757800e+01,-1.383790e+02,7.138700e+01,-3.750000e+01,1.221680e+02,-3.582030e+02,-8.281200e+01,-2.498050e+02,-5.820300e+01,1.855500e+01,1.591800e+02,-1.356450e+02,4.062500e+01
1.756840e+02,-6.492190e+02,5.263700e+01,6.337900e+01,4.726600e+01,-4.853500e+01,1.220700e+01,-1.489260e+02,6.884800e+01,-4.560500e+01,1.414060e+02,-3.876950e+02,-4.902300e+01,-2.734380e+02,-5.673800e+01,3.809000e+00,1.604490e+02,-1.405270e+02,3.066400e+01
1.664060e+02,-6.735350e+02,4.179700e+01,3.164100e+01,4.140600e+01,-4.531200e+01,-3.320000e+00,-1.733400e+02,5.117200e+01,-7.031200e+01,1.211910e+02,-4.048830e+02,-3.974600e+01,-2.998050e+02,-6.806600e+01,-2.226600e+01,1.476560e+02,-1.572270e+02,6.055000e+00
1.708980e+02,-6.695310e+02,5.517600e+01,2.959000e+01,4.912100e+01,-5.576200e+01,3.910000e-01,-1.669920e+02,5.390600e+01,-6.308600e+01,1.092770e+02,-3.933590e+02,-5.019500e+01,-2.915040e+02,-6.689500e+01,-1.015600e+01,1.520510e+02,-1.511720e+02,1.162100e+01
1.905270e+02,-6.394530e+02,7.832000e+01,6.005900e+01,6.640600e+01,-7.177700e+01,2.099600e+01,-1.426760e+02,6.640600e+01,-3.867200e+01,1.320310e+02,-3.662110e+02,-5.537100e+01,-2.640620e+02,-4.414100e+01,1.738300e+01,1.722660e+02,-1.257810e+02,3.632800e+01
2.012700e+02,-6.185550e+02,8.925800e+01,8.671900e+01,8.281200e+01,-8.710900e+01,3.730500e+01,-1.288090e+02,7.011700e+01,-3.027300e+01,1.368160e+02,-3.564450e+02,-7.695300e+01,-2.653320e+02,-2.939500e+01,25,1.837890e+02,-1.074220e+02,5.068400e+01
2.032230e+02,-6.060550e+02,9.277300e+01,1.067380e+02,8.125000e+01,-8.466800e+01,3.759800e+01,-1.192380e+02,6.630900e+01,-2.539100e+01,1.464840e+02,-3.644530e+02,-7.265600e+01,-2.525390e+02,-3.408200e+01,3.066400e+01,1.869140e+02,-1.018550e+02,5.742200e+01
2.368160e+02,-5.617190e+02,1.176760e+02,1.331050e+02,8.164100e+01,-8.544900e+01,5.244100e+01,-8.632800e+01,8.330100e+01,7.715000e+00,2.078120e+02,-2.975590e+02,-6.230500e+01,-1.994140e+02,-1.806600e+01,7.363300e+01,2.121090e+02,-7.900400e+01,8.652300e+01
2.333010e+02,-5.719730e+02,1.147460e+02,1.188480e+02,7.627000e+01,-8.105500e+01,3.955100e+01,-9.423800e+01,7.265600e+01,2.246000e+00,1.867190e+02,-3.134770e+02,-7.871100e+01,-2.053710e+02,-2.539100e+01,6.357400e+01,2.031250e+02,-8.779300e+01,7.460900e+01
2.118160e+02,-6.003910e+02,9.160200e+01,9.824200e+01,6.084000e+01,-6.416000e+01,1.787100e+01,-1.205080e+02,5.898400e+01,-2.177700e+01,1.528320e+02,-3.423830e+02,-7.832000e+01,-2.260740e+02,-4.462900e+01,3.623000e+01,1.855470e+02,-1.107420e+02,4.902300e+01
1.851560e+02,-6.291990e+02,6.611300e+01,7.910200e+01,4.511700e+01,-4.785200e+01,2.930000e-01,-1.437500e+02,4.951200e+01,-4.560500e+01,1.294920e+02,-3.683590e+02,-7.050800e+01,-2.535160e+02,-5.996100e+01,1.357400e+01,1.678710e+02,-1.319340e+02,2.841800e+01
1.791990e+02,-6.447270e+02,5.869100e+01,5.752000e+01,4.570300e+01,-4.853500e+01,-4.395000e+00,-1.527340e+02,4.531200e+01,-5.742200e+01,1.272460e+02,-3.790040e+02,-6.054700e+01,-2.728520e+02,-6.611300e+01,2.148000e+00,1.631840e+02,-1.392580e+02,1.982400e+01
1.660160e+02,-6.726560e+02,5.087900e+01,2.724600e+01,3.955100e+01,-4.335900e+01,-1.767600e+01,-1.734370e+02,3.789100e+01,-7.529300e+01,1.028320e+02,-4.045900e+02,-5.839800e+01,-3.005860e+02,-8.544900e+01,-2.119100e+01,1.497070e+02,-1.548830e+02,1.562000e+00
1.611330e+02,-6.738280e+02,7.041000e+01,3.203100e+01,4.638700e+01,-5.244100e+01,-1.787100e+01,-1.753910e+02,3.828100e+01,-7.558600e+01,8.232400e+01,-4.111330e+02,-6.601600e+01,-3.000980e+02,-9.453100e+01,-2.119100e+01,1.506840e+02,-1.514650e+02,5.371000e+00
1.872070e+02,-6.371090e+02,6.054700e+01,6.806600e+01,5.459000e+01,-6.132800e+01,8.105000e+00,-1.406250e+02,5.878900e+01,-4.189500e+01,1.447270e+02,-3.759770e+02,-5.048800e+01,-2.666990e+02,-6.992200e+01,1.425800e+01,1.731450e+02,-1.262700e+02,3.896500e+01
2.087890e+02,-6.154300e+02,8.320300e+01,8.300800e+01,7.002000e+01,-7.382800e+01,2.880900e+01,-1.171870e+02,7.021500e+01,-2.421900e+01,1.681640e+02,-3.552730e+02,-5.156200e+01,-2.479490e+02,-4.628900e+01,3.085900e+01,1.885740e+02,-1.037110e+02,6.132800e+01
2.121090e+02,-6.008790e+02,9.169900e+01,9.638700e+01,7.412100e+01,-7.578100e+01,3.642600e+01,-1.002930e+02,7.519500e+01,-1.259800e+01,1.688480e+02,-3.380860e+02,-5.703100e+01,-2.280270e+02,-3.310500e+01,4.414100e+01,1.909180e+02,-9.599600e+01,7.441400e+01
2.298830e+02,-5.680660e+02,1.126950e+02,1.349610e+02,8.076200e+01,-8.232400e+01,4.453100e+01,-7.802700e+01,7.568400e+01,6.250000e+00,1.816410e+02,-3.153320e+02,-8.632800e+01,-2.059570e+02,-2.656300e+01,6.962900e+01,2.083010e+02,-7.890600e+01,9.267600e+01
2.251950e+02,-5.811520e+02,1.129880e+02,1.274410e+02,7.324200e+01,-7.744100e+01,3.310500e+01,-8.652300e+01,6.367200e+01,-2.637000e+00,1.522460e+02,-3.395510e+02,-9.394500e+01,-2.204100e+02,-3.730500e+01,5.449200e+01,2.004880e+02,-8.769500e+01,8.134800e+01
2.035160e+02,-6.114260e+02,8.271500e+01,8.906300e+01,5.312500e+01,-5.771500e+01,9.863000e+00,-1.035160e+02,5.214800e+01,-1.943400e+01,1.300780e+02,-3.489260e+02,-9.394500e+01,-2.443360e+02,-6.181600e+01,3.330100e+01,1.786130e+02,-1.124020e+02,5.859400e+01
1.777340e+02,-6.398440e+02,5.380900e+01,5.839800e+01,3.974600e+01,-4.296900e+01,-1.562000e+00,-1.193360e+02,5.087900e+01,-2.949200e+01,1.211910e+02,-3.620120e+02,-8.642600e+01,-2.520510e+02,-7.265600e+01,2.060500e+01,1.583980e+02,-1.331050e+02,4.345700e+01
1.753910e+02,-6.498050e+02,5.087900e+01,5.634800e+01,4.423800e+01,-4.462900e+01,6.840000e-01,-1.306640e+02,5.742200e+01,-4.326200e+01,1.227540e+02,-3.753910e+02,-7.002000e+01,-2.608400e+02,-6.923800e+01,3.613000e+00,1.580080e+02,-1.367190e+02,3.632800e+01
1.595700e+02,-6.790040e+02,2.929700e+01,3.427700e+01,3.418000e+01,-3.720700e+01,-1.523400e+01,-1.599610e+02,4.091800e+01,-7.470700e+01,9.013700e+01,-4.367190e+02,-5.556600e+01,-3.164060e+02,-8.173800e+01,-2.968800e+01,1.423830e+02,-1.543950e+02,1.152300e+01
1.568360e+02,-6.813480e+02,3.593800e+01,2.226600e+01,3.867200e+01,-4.404300e+01,-1.318400e+01,-1.633790e+02,3.642600e+01,-7.382800e+01,9.150400e+01,-4.206050e+02,-7.226600e+01,-3.040040e+02,-9.287100e+01,-2.255900e+01,1.409180e+02,-1.529300e+02,1.562500e+01
1.893550e+02,-6.369140e+02,7.597700e+01,7.168000e+01,5.673800e+01,-6.250000e+01,1.025400e+01,-1.448240e+02,4.804700e+01,-4.775400e+01,1.256840e+02,-3.774410e+02,-6.669900e+01,-2.517580e+02,-6.943400e+01,7.031000e+00,1.729490e+02,-1.252930e+02,4.179700e+01
2.221680e+02,-6.005860e+02,1.054690e+02,9.502000e+01,7.460900e+01,-7.959000e+01,3.281200e+01,-1.177730e+02,5.693400e+01,-2.226600e+01,1.668950e+02,-3.369140e+02,-4.912100e+01,-2.271480e+02,-2.793000e+01,3.261700e+01,1.966800e+02,-9.960900e+01,6.523400e+01
2.275390e+02,-5.903320e+02,9.775400e+01,1.069340e+02,7.548800e+01,-7.910200e+01,3.906200e+01,-1.015630e+02,5.742200e+01,-8.398000e+00,1.629880e+02,-3.324220e+02,-6.005900e+01,-2.136720e+02,-1.494100e+01,4.677700e+01,1.986330e+02,-9.248000e+01,7.627000e+01
2.394530e+02,-5.639650e+02,1.155270e+02,1.271480e+02,8.252000e+01,-8.554700e+01,5.127000e+01,-7.812500e+01,6.718800e+01,1.298800e+01,1.776370e+02,-2.886720e+02,-7.441400e+01,-1.828120e+02,-8.984000e+00,7.246100e+01,2.099610e+02,-7.675800e+01,9.785200e+01
2.300780e+02,-5.763670e+02,1.125980e+02,1.096680e+02,7.871100e+01,-8.408200e+01,5.273400e+01,-8.007800e+01,7.529300e+01,1.152300e+01,1.708010e+02,-2.991210e+02,-8.320300e+01,-1.986330e+02,-1.679700e+01,6.171900e+01,1.998050e+02,-8.291000e+01,9.404300e+01
2.020510e+02,-6.107420e+02,8.242200e+01,8.183600e+01,6.250000e+01,-6.816400e+01,3.828100e+01,-1.028320e+02,7.421900e+01,-7.422000e+00,1.502930e+02,-3.391600e+02,-7.470700e+01,-2.329100e+02,-3.496100e+01,3.056600e+01,1.757810e+02,-1.067380e+02,7.343700e+01
1.802730e+02,-6.382810e+02,6.445300e+01,6.337900e+01,4.990200e+01,-5.244100e+01,1.728500e+01,-1.246090e+02,5.820300e+01,-2.431600e+01,1.268550e+02,-3.632810e+02,-6.513700e+01,-2.470700e+02,-4.931600e+01,1.669900e+01,1.597660e+02,-1.279300e+02,5.175800e+01
1.762700e+02,-6.494140e+02,5.449200e+01,5.585900e+01,4.873000e+01,-4.980500e+01,1.308600e+01,-1.345700e+02,5.517600e+01,-2.968800e+01,1.254880e+02,-3.795900e+02,-5.048800e+01,-2.614260e+02,-4.863300e+01,1.005900e+01,1.583010e+02,-1.340820e+02,4.384800e+01
1.667970e+02,-6.727540e+02,4.228500e+01,3.193400e+01,4.287100e+01,-4.511700e+01,6.445000e+00,-1.538090e+02,5.517600e+01,-4.658200e+01,1.141600e+02,-4.042970e+02,-4.394500e+01,-2.903320e+02,-5.781300e+01,-1.357400e+01,1.470700e+02,-1.472660e+02,2.714800e+01
1.632810e+02,-6.743160e+02,3.925800e+01,2.929700e+01,4.511700e+01,-5.058600e+01,1.074200e+01,-1.504880e+02,6.435500e+01,-4.189500e+01,1.223630e+02,-3.965820e+02,-4.238300e+01,-2.915040e+02,-5.878900e+01,-4.199000e+00,1.456050e+02,-1.467770e+02,3.300800e+01
1.749020e+02,-6.521480e+02,6.064500e+01,5.117200e+01,6.601600e+01,-7.119100e+01,3.203100e+01,-1.299800e+02,7.207000e+01,-2.421900e+01,8.974600e+01,-3.823240e+02,-6.972700e+01,-2.768550e+02,-3.173800e+01,1.689500e+01,1.598630e+02,-1.255860e+02,5.537100e+01
1.901370e+02,-6.301760e+02,9.101600e+01,6.953100e+01,8.623000e+01,-8.925800e+01,4.892600e+01,-1.116210e+02,7.402300e+01,-8.203000e+00,1.053710e+02,-3.713870e+02,-7.128900e+01,-2.568360e+02,-1.396500e+01,3.252000e+01,1.743160e+02,-1.036130e+02,7.334000e+01
2.112300e+02,-6.039060e+02,9.062500e+01,9.248000e+01,7.597700e+01,-7.832000e+01,6.103500e+01,-8.212900e+01,8.779300e+01,1.953100e+01,2.019530e+02,-3.424800e+02,-4.609400e+01,-2.309570e+02,-1.367000e+00,6.435500e+01,1.890620e+02,-9.150400e+01,9.609400e+01
2.189450e+02,-5.833980e+02,1.014650e+02,1.157230e+02,8.017600e+01,-8.378900e+01,7.197300e+01,-6.210900e+01,9.570300e+01,3.730500e+01,2.047850e+02,-3.266600e+02,-6.582000e+01,-2.212890e+02,7.227000e+00,8.115200e+01,1.977540e+02,-7.822300e+01,1.143550e+02
2.133790e+02,-5.876950e+02,1.027340e+02,1.176760e+02,8.085900e+01,-8.691400e+01,6.855500e+01,-7.158200e+01,8.994100e+01,3.076200e+01,1.855470e+02,-3.326170e+02,-6.923800e+01,-2.078120e+02,9.961000e+00,7.187500e+01,1.917970e+02,-8.271500e+01,1.073240e+02
1.983400e+02,-6.150390e+02,9.531200e+01,9.189500e+01,6.962900e+01,-7.392600e+01,4.072300e+01,-1.008790e+02,6.621100e+01,5.957000e+00,1.530270e+02,-3.642580e+02,-6.572300e+01,-2.347660e+02,-1.777300e+01,4.296900e+01,1.745120e+02,-1.057620e+02,7.763700e+01
1.695310e+02,-6.485350e+02,7.382800e+01,5.527300e+01,5.312500e+01,-5.546900e+01,1.992200e+01,-1.220700e+02,5.517600e+01,-1.582000e+01,1.071290e+02,-3.839840e+02,-6.455100e+01,-2.649410e+02,-3.837900e+01,2.158200e+01,1.517580e+02,-1.299800e+02,5.361300e+01
1.676760e+02,-6.543950e+02,4.082000e+01,5.078100e+01,4.541000e+01,-4.648400e+01,1.835900e+01,-1.263670e+02,5.927700e+01,-1.767600e+01,1.276370e+02,-3.817380e+02,-5.537100e+01,-2.642580e+02,-4.228500e+01,2.265600e+01,1.507810e+02,-1.361330e+02,4.902300e+01
1.563480e+02,-6.807620e+02,3.144500e+01,2.539100e+01,4.521500e+01,-4.814500e+01,1.835900e+01,-1.467770e+02,6.445300e+01,-3.320300e+01,1.105470e+02,-4.125980e+02,-4.912100e+01,-2.867190e+02,-5.449200e+01,8.790000e-01,1.378910e+02,-1.484370e+02,3.515600e+01
1.536130e+02,-6.852540e+02,3.144500e+01,2.392600e+01,4.589800e+01,-5.263700e+01,2.002000e+01,-1.475590e+02,6.669900e+01,-3.544900e+01,1.082030e+02,-4.055660e+02,-4.502000e+01,-2.813480e+02,-5.859400e+01,5.371000e+00,1.376950e+02,-1.492190e+02,3.544900e+01
1.758790e+02,-6.554690e+02,6.377000e+01,4.228500e+01,6.406300e+01,-7.041000e+01,3.847700e+01,-1.246090e+02,7.402300e+01,-1.689500e+01,1.309570e+02,-3.674800e+02,-4.824200e+01,-2.493160e+02,-3.916000e+01,3.300800e+01,1.581050e+02,-1.258790e+02,5.800800e+01
1.999020e+02,-6.230470e+02,8.750000e+01,6.533200e+01,8.066400e+01,-8.408200e+01,5.625000e+01,-1.060550e+02,7.880900e+01,3.027000e+00,1.536130e+02,-3.377930e+02,-5.009800e+01,-2.291020e+02,-2.050800e+01,5.322300e+01,1.777340e+02,-1.033200e+02,7.793000e+01
2.050780e+02,-6.075200e+02,9.160200e+01,8.398400e+01,8.544900e+01,-8.613300e+01,6.113300e+01,-9.843800e+01,7.812500e+01,9.277000e+00,1.537110e+02,-3.331050e+02,-6.855500e+01,-2.213870e+02,-1.826200e+01,5.937500e+01,1.820310e+02,-9.589800e+01,8.574200e+01
2.143550e+02,-5.829100e+02,1.049800e+02,1.121090e+02,9.101600e+01,-9.209000e+01,6.787100e+01,-7.685500e+01,7.998000e+01,2.470700e+01,1.644530e+02,-3.053710e+02,-8.349600e+01,-1.950200e+02,-6.152000e+00,8.164100e+01,1.939450e+02,-8.242200e+01,1.008790e+02
2.178710e+02,-5.804690e+02,1.017580e+02,1.139650e+02,7.568400e+01,-8.085900e+01,6.054700e+01,-6.787100e+01,7.568400e+01,2.646500e+01,1.793950e+02,-3.122070e+02,-7.919900e+01,-2.268550e+02,-1.172000e+00,8.085900e+01,1.942380e+02,-8.525400e+01,9.824200e+01
2.015630e+02,-6.081050e+02,8.310500e+01,8.681600e+01,6.113300e+01,-6.601600e+01,4.306600e+01,-9.121100e+01,6.523400e+01,2.441000e+00,1.543950e+02,-350,-7.998000e+01,-2.458010e+02,-2.226600e+01,5.361300e+01,1.753910e+02,-1.082030e+02,7.177700e+01
1.940430e+02,-6.203130e+02,7.421900e+01,7.861300e+01,5.507800e+01,-5.644500e+01,2.666000e+01,-1.194340e+02,5.527300e+01,-1.650400e+01,1.393550e+02,-3.480470e+02,-6.718800e+01,-2.246090e+02,-4.228500e+01,3.837900e+01,1.683590e+02,-125,4.912100e+01
1.768550e+02,-6.437500e+02,6.162100e+01,6.425800e+01,5.097700e+01,-5.136700e+01,1.806600e+01,-1.352540e+02,5.332000e+01,-3.144500e+01,1.221680e+02,-3.799800e+02,-6.025400e+01,-2.578120e+02,-5.302700e+01,1.826200e+01,1.599610e+02,-1.362300e+02,3.496100e+01
1.560550e+02,-6.783200e+02,4.267600e+01,2.861300e+01,4.404300e+01,-4.599600e+01,5.859000e+00,-1.573240e+02,4.511700e+01,-5.625000e+01,1.060550e+02,-4.228520e+02,-4.716800e+01,-2.949220e+02,-6.464800e+01,-1.191400e+01,1.423830e+02,-1.531250e+02,1.230500e+01
1.591800e+02,-6.760740e+02,4.082000e+01,2.783200e+01,4.609400e+01,-5.195300e+01,8.594000e+00,-1.608400e+02,5.078100e+01,-5.615200e+01,1.211910e+02,-4.006840e+02,-3.720700e+01,-2.752930e+02,-6.582000e+01,-9.277000e+00,1.445310e+02,-1.529300e+02,1.240200e+01
1.825200e+02,-6.435550e+02,6.230500e+01,5.908200e+01,6.113300e+01,-6.669900e+01,2.539100e+01,-1.382810e+02,6.005900e+01,-3.378900e+01,1.518550e+02,-3.772460e+02,-3.632800e+01,-2.553710e+02,-4.970700e+01,2.255900e+01,1.671880e+02,-1.285160e+02,3.642600e+01
2.105470e+02,-6.106450e+02,9.130900e+01,9.257800e+01,7.636700e+01,-7.939500e+01,3.603500e+01,-1.160160e+02,5.820300e+01,-1.601600e+01,1.678710e+02,-3.656250e+02,-50,-2.381840e+02,-4.248000e+01,4.589800e+01,1.902340e+02,-1.041020e+02,5.429700e+01
2.224610e+02,-5.917970e+02,1.086910e+02,1.122070e+02,8.115200e+01,-8.369100e+01,3.877000e+01,-1.019530e+02,5.419900e+01,-6.543000e+00,1.656250e+02,-3.388670e+02,-6.142600e+01,-2.149410e+02,-2.480500e+01,5.634800e+01,1.994140e+02,-9.345700e+01,6.308600e+01
2.320310e+02,-5.707030e+02,1.204100e+02,1.161130e+02,8.808600e+01,-9.140600e+01,5.459000e+01,-8.105500e+01,6.523400e+01,1.201200e+01,1.845700e+02,-2.943360e+02,-7.109400e+01,-1.891600e+02,5.860000e-01,7.910200e+01,2.077150e+02,-7.900400e+01,8.359400e+01
2.330080e+02,-5.689450e+02,1.209960e+02,1.161130e+02,8.574200e+01,-8.984400e+01,5.390600e+01,-8.242200e+01,6.377000e+01,4.980000e+00,1.738280e+02,-2.970700e+02,-8.164100e+01,-1.964840e+02,-9.570000e+00,6.835900e+01,2.057620e+02,-7.988300e+01,8.183600e+01
2.091800e+02,-6.033200e+02,9.814500e+01,8.886700e+01,6.718800e+01,-7.138700e+01,3.212900e+01,-1.059570e+02,5.429700e+01,-1.640600e+01,1.556640e+02,-3.348630e+02,-7.919900e+01,-2.303710e+02,-4.238300e+01,3.964800e+01,1.847660e+02,-1.031250e+02,5.898400e+01
1.823240e+02,-6.329100e+02,6.259800e+01,7.568400e+01,4.502000e+01,-4.648400e+01,1.201200e+01,-1.237300e+02,5.019500e+01,-2.841800e+01,1.296870e+02,-3.679690e+02,-7.685500e+01,-2.637700e+02,-6.337900e+01,2.050800e+01,1.668950e+02,-1.247070e+02,4.326200e+01
1.737300e+02,-6.483400e+02,4.980500e+01,6.171900e+01,4.169900e+01,-4.384800e+01,2.637000e+00,-1.337890e+02,4.423800e+01,-3.535200e+01,1.205080e+02,-3.857420e+02,-7.168000e+01,-2.602540e+02,-6.982400e+01,1.386700e+01,1.603520e+02,-1.337890e+02,3.349600e+01
1.687500e+02,-6.660160e+02,5.263700e+01,3.271500e+01,4.101600e+01,-4.443400e+01,-1.044900e+01,-1.519530e+02,2.900400e+01,-5.175800e+01,1.089840e+02,-3.872070e+02,-6.484400e+01,-2.686520e+02,-8.710900e+01,-3.223000e+00,1.516600e+02,-1.457030e+02,1.494100e+01
1.622070e+02,-6.791020e+02,5.019500e+01,1.699200e+01,4.140600e+01,-4.707000e+01,-9.277000e+00,-1.592770e+02,3.593800e+01,-6.093700e+01,1.024410e+02,-3.974610e+02,-6.142600e+01,-2.791990e+02,-9.209000e+01,-9.863000e+00,1.476560e+02,-1.486330e+02,1.386700e+01
1.776370e+02,-6.514650e+02,5.546900e+01,4.638700e+01,5.625000e+01,-6.259800e+01,1.425800e+01,-1.383790e+02,5.673800e+01,-4.111300e+01,1.315430e+02,-3.730470e+02,-5.615200e+01,-2.585940e+02,-6.484400e+01,1.337900e+01,1.650390e+02,-1.268550e+02,3.984400e+01
2.002930e+02,-6.175780e+02,8.330100e+01,7.753900e+01,7.255900e+01,-7.685500e+01,3.437500e+01,-1.155270e+02,6.982400e+01,-2.089800e+01,1.494140e+02,-3.522460e+02,-6.494100e+01,-2.384770e+02,-4.482400e+01,3.398400e+01,1.862300e+02,-1.019530e+02,6.298800e+01
2.062500e+02,-6.016600e+02,9.257800e+01,9.599600e+01,7.431600e+01,-7.656300e+01,3.730500e+01,-1.016600e+02,6.767600e+01,-1.181600e+01,1.467770e+02,-3.443360e+02,-7.412100e+01,-2.416020e+02,-3.339800e+01,4.365200e+01,1.916020e+02,-9.248000e+01,7.246100e+01
2.133790e+02,-5.832030e+02,1.076170e+02,1.219730e+02,7.988300e+01,-8.281200e+01,3.984400e+01,-8.662100e+01,6.709000e+01,1.950000e-01,1.080080e+02,-3.468750e+02,-1.208010e+02,-2.232420e+02,-3.056600e+01,6.279300e+01,200,-8.115200e+01,8.525400e+01
2.076170e+02,-5.868160e+02,1.184570e+02,1.205080e+02,9.033200e+01,-9.560500e+01,4.648400e+01,-9.375000e+01,6.845700e+01,-4.883000e+00,1.007810e+02,-3.481450e+02,-1.108400e+02,-2.169920e+02,-2.002000e+01,5.127000e+01,1.958010e+02,-8.095700e+01,8.203100e+01
2.011720e+02,-6.028320e+02,7.324200e+01,1.015630e+02,6.142600e+01,-6.630900e+01,3.447300e+01,-1.054690e+02,7.021500e+01,-1.513700e+01,1.661130e+02,-3.448240e+02,-7.138700e+01,-2.367190e+02,-3.007800e+01,3.603500e+01,1.840820e+02,-1.009770e+02,6.660200e+01
1.848630e+02,-6.266600e+02,5.224600e+01,7.929700e+01,4.218800e+01,-4.609400e+01,1.084000e+01,-1.213870e+02,5.673800e+01,-2.900400e+01,1.545900e+02,-3.534180e+02,-5.742200e+01,-2.427730e+02,-4.843800e+01,2.363300e+01,1.690430e+02,-1.208980e+02,4.687500e+01
1.829100e+02,-6.379880e+02,5.488300e+01,5.849600e+01,4.140600e+01,-4.296900e+01,3.910000e-01,-1.317380e+02,5.185500e+01,-3.574200e+01,1.435550e+02,-3.531250e+02,-5.214800e+01,-2.420900e+02,-6.103500e+01,1.875000e+01,1.670900e+02,-1.279300e+02,3.662100e+01
1.705080e+02,-6.658200e+02,4.502000e+01,2.959000e+01,3.994100e+01,-4.218800e+01,-5.176000e+00,-1.545900e+02,5.644500e+01,-5.273400e+01,1.233400e+02,-3.878910e+02,-5.839800e+01,-2.691410e+02,-8.584000e+01,-2.246000e+00,1.543950e+02,-1.402340e+02,2.236300e+01
1.572270e+02,-6.787110e+02,3.017600e+01,2.314500e+01,3.720700e+01,-4.326200e+01,-2.539000e+00,-1.613280e+02,6.660200e+01,-5.644500e+01,1.196290e+02,-4.119140e+02,-5.039100e+01,-2.904300e+02,-9.609400e+01,-7.617000e+00,1.455080e+02,-1.459960e+02,2.109400e+01
1.777340e+02,-6.469730e+02,5.419900e+01,5.488300e+01,5.283200e+01,-5.947300e+01,1.259800e+01,-1.400390e+02,6.386700e+01,-3.847700e+01,1.373050e+02,-3.832030e+02,-4.980500e+01,-2.666990e+02,-7.050800e+01,1.669900e+01,1.673830e+02,-1.243160e+02,4.121100e+01
2.048830e+02,-6.142580e+02,8.584000e+01,7.890600e+01,7.148400e+01,-7.578100e+01,2.939500e+01,-1.168950e+02,6.523400e+01,-2.148400e+01,1.565430e+02,-3.499020e+02,-5.459000e+01,-2.422850e+02,-4.043000e+01,3.447300e+01,1.891600e+02,-1.007810e+02,5.976600e+01
2.135740e+02,-5.981450e+02,9.316400e+01,9.687500e+01,7.646500e+01,-7.832000e+01,3.994100e+01,-1.064450e+02,7.373000e+01,-1.523400e+01,1.692380e+02,-3.422850e+02,-5.673800e+01,-2.341800e+02,-1.943400e+01,3.740200e+01,1.951170e+02,-9.003900e+01,7.255900e+01
2.208980e+02,-5.773440e+02,9.794900e+01,1.271480e+02,7.490200e+01,-7.773400e+01,4.482400e+01,-8.378900e+01,7.851600e+01,4.199000e+00,1.726560e+02,-3.307620e+02,-7.949200e+01,-2.187500e+02,-1.640600e+01,6.328100e+01,2.042970e+02,-7.812500e+01,8.935500e+01
2.240230e+02,-5.739260e+02,1.084960e+02,1.273440e+02,7.382800e+01,-7.910200e+01,3.945300e+01,-8.330100e+01,6.806600e+01,2.539000e+00,1.601560e+02,-3.307620e+02,-9.570300e+01,-2.167970e+02,-2.509800e+01,5.976600e+01,2.037110e+02,-7.802700e+01,8.632800e+01
2.085940e+02,-5.991210e+02,8.378900e+01,9.531200e+01,6.054700e+01,-6.640600e+01,2.431600e+01,-1.059570e+02,5.654300e+01,-1.523400e+01,1.547850e+02,-3.487300e+02,-8.252000e+01,-2.550780e+02,-4.257800e+01,3.447300e+01,1.837890e+02,-1.000980e+02,6.455100e+01
1.894530e+02,-6.258790e+02,6.474600e+01,7.216800e+01,4.628900e+01,-4.882800e+01,5.566000e+00,-1.205080e+02,5.146500e+01,-2.724600e+01,1.232420e+02,-3.747070e+02,-8.017600e+01,-2.594730e+02,-8.154300e+01,2.617200e+01,1.689450e+02,-1.202150e+02,4.824200e+01
1.867190e+02,-6.359370e+02,6.035200e+01,5.947300e+01,5.078100e+01,-5.156200e+01,8.105000e+00,-1.369140e+02,6.142600e+01,-3.593800e+01,1.329100e+02,-3.595700e+02,-50,-2.292970e+02,-7.890600e+01,2.011700e+01,1.671880e+02,-1.270510e+02,4.072300e+01
1.754880e+02,-6.590820e+02,4.921900e+01,3.476600e+01,4.882800e+01,-5.146500e+01,3.711000e+00,-1.563480e+02,6.093700e+01,-5.410200e+01,1.182620e+02,-3.855470e+02,-4.013700e+01,-2.629880e+02,-7.558600e+01,-4.785000e+00,1.549800e+02,-1.393550e+02,2.587900e+01
1.648440e+02,-6.696290e+02,4.238300e+01,3.125000e+01,4.179700e+01,-4.775400e+01,-5.566000e+00,-1.677730e+02,5.273400e+01,-6.445300e+01,1.101560e+02,-4.041990e+02,-4.707000e+01,-2.822270e+02,-8.759800e+01,-1.474600e+01,1.481450e+02,-1.468750e+02,1.738300e+01
1.856450e+02,-6.398440e+02,5.390600e+01,5.732400e+01,5.322300e+01,-5.947300e+01,1.777300e+01,-1.425780e+02,6.572300e+01,-3.955100e+01,1.378910e+02,-3.766600e+02,-4.589800e+01,-2.558590e+02,-5.439500e+01,1.552700e+01,1.683590e+02,-1.243160e+02,4.482400e+01
2.063480e+02,-6.132810e+02,7.939500e+01,7.695300e+01,7.265600e+01,-7.675800e+01,3.955100e+01,-1.234370e+02,7.421900e+01,-2.216800e+01,1.572270e+02,-3.535160e+02,-3.691400e+01,-2.348630e+02,-2.929700e+01,3.339800e+01,1.847660e+02,-1.011720e+02,6.630900e+01
2.158200e+02,-5.927730e+02,9.072300e+01,9.580100e+01,7.841800e+01,-8.095700e+01,5.009800e+01,-1.085940e+02,7.988300e+01,-9.863000e+00,1.656250e+02,-3.317380e+02,-5.332000e+01,-2.224610e+02,-1.455100e+01,4.355500e+01,1.927730e+02,-8.906300e+01,7.939500e+01
2.214840e+02,-5.768550e+02,1.027340e+02,1.156250e+02,8.232400e+01,-8.623000e+01,5.878900e+01,-8.857400e+01,8.710900e+01,6.250000e+00,1.730470e+02,-3.223630e+02,-6.513700e+01,-2.115230e+02,3.027000e+00,6.494100e+01,1.993160e+02,-7.832000e+01,9.521500e+01
2.223630e+02,-5.761720e+02,1.068360e+02,1.200200e+02,8.261700e+01,-8.818400e+01,6.298800e+01,-8.056600e+01,9.062500e+01,1.005900e+01,1.739260e+02,-3.290040e+02,-7.226600e+01,-2.260740e+02,6.836000e+00,6.689500e+01,1.996090e+02,-7.470700e+01,100
2.060550e+02,-6.021480e+02,8.740200e+01,9.355500e+01,6.689500e+01,-7.119100e+01,4.335900e+01,-9.804700e+01,8.037100e+01,-4.785000e+00,1.558590e+02,-3.550780e+02,-7.802700e+01,-2.412110e+02,-2.431600e+01,4.863300e+01,1.814450e+02,-9.638700e+01,7.832000e+01
1.871090e+02,-6.267580e+02,7.031200e+01,6.738300e+01,5.312500e+01,-5.576200e+01,2.646500e+01,-1.159180e+02,7.431600e+01,-1.630900e+01,1.363280e+02,-3.509770e+02,-7.441400e+01,-2.473630e+02,-5.234400e+01,3.632800e+01,1.649410e+02,-1.182620e+02,6.044900e+01
1.745120e+02,-6.479490e+02,5.576200e+01,4.941400e+01,4.863300e+01,-5.048800e+01,2.089800e+01,-1.307620e+02,7.431600e+01,-2.744100e+01,1.311520e+02,-3.698240e+02,-5.878900e+01,-2.545900e+02,-5.927700e+01,2.226600e+01,1.548830e+02,-1.297850e+02,4.941400e+01
1.667970e+02,-6.673830e+02,4.707000e+01,3.095700e+01,4.843800e+01,-5.068400e+01,2.002000e+01,-1.524410e+02,7.627000e+01,-4.726600e+01,1.240230e+02,-3.943360e+02,-4.287100e+01,-2.742190e+02,-6.015600e+01,-2.832000e+00,1.461910e+02,-1.393550e+02,3.584000e+01
1.544920e+02,-6.835940e+02,3.710900e+01,1.601600e+01,4.677700e+01,-5.283200e+01,1.845700e+01,-1.644530e+02,7.714800e+01,-5.976600e+01,1.135740e+02,-4.170900e+02,-3.955100e+01,-2.915040e+02,-6.191400e+01,-1.445300e+01,1.361330e+02,-1.483400e+02,2.666000e+01
1.662110e+02,-6.612300e+02,5.869100e+01,4.316400e+01,6.298800e+01,-6.796900e+01,3.408200e+01,-1.431640e+02,8.505900e+01,-3.955100e+01,1.090820e+02,-3.967770e+02,-6.367200e+01,-2.783200e+02,-5.097700e+01,6.445000e+00,1.528320e+02,-1.274410e+02,4.736300e+01
1.925780e+02,-6.308590e+02,9.345700e+01,6.513700e+01,7.685500e+01,-8.066400e+01,5.507800e+01,-1.144530e+02,1.000980e+02,-1.240200e+01,1.527340e+02,-3.683590e+02,-5.127000e+01,-2.513670e+02,-2.578100e+01,3.066400e+01,1.759770e+02,-1.012700e+02,7.294900e+01
2.070310e+02,-6.099610e+02,1.083980e+02,8.105500e+01,8.574200e+01,-8.779300e+01,6.308600e+01,-9.628900e+01,1.006840e+02,2.344000e+00,1.692380e+02,-3.421880e+02,-4.912100e+01,-2.227540e+02,-1.738300e+01,4.951200e+01,1.859380e+02,-8.769500e+01,8.505900e+01
2.204100e+02,-5.800780e+02,9.619100e+01,1.154300e+02,8.447300e+01,-8.662100e+01,6.728500e+01,-7.255900e+01,9.677700e+01,2.050800e+01,1.879880e+02,-3.191410e+02,-5.488300e+01,-1.966800e+02,-2.734000e+00,7.929700e+01,1.987300e+02,-7.646500e+01,1.000980e+02
2.235350e+02,-5.730470e+02,1.053710e+02,1.303710e+02,8.886700e+01,-9.306600e+01,5.380900e+01,-7.627000e+01,7.041000e+01,9.082000e+00,1.495120e+02,-3.246090e+02,-8.964800e+01,-2.049800e+02,-1.758000e+00,7.324200e+01,2.008790e+02,-7.568400e+01,9.082000e+01
2.045900e+02,-6.054690e+02,9.775400e+01,9.414100e+01,7.021500e+01,-7.460900e+01,3.144500e+01,-9.960900e+01,5.683600e+01,-1.123000e+01,1.519530e+02,-3.464840e+02,-6.611300e+01,-2.337890e+02,-2.041000e+01,4.365200e+01,1.816410e+02,-9.785200e+01,6.455100e+01
1.907230e+02,-6.243160e+02,6.513700e+01,6.953100e+01,5.195300e+01,-5.546900e+01,2.246100e+01,-1.133790e+02,6.669900e+01,-1.533200e+01,1.676760e+02,-3.549800e+02,-4.570300e+01,-2.396480e+02,-3.378900e+01,3.750000e+01,1.679690e+02,-1.163090e+02,5.234400e+01
1.772460e+02,-6.458980e+02,5.800800e+01,7.285200e+01,4.443400e+01,-4.599600e+01,6.934000e+00,-1.372070e+02,5.742200e+01,-4.033200e+01,1.383790e+02,-4.091800e+02,-5.205100e+01,-2.700200e+02,-6.406300e+01,8.496000e+00,1.625000e+02,-1.302730e+02,3.212900e+01
1.722660e+02,-6.635740e+02,4.648400e+01,4.003900e+01,4.404300e+01,-4.628900e+01,5.469000e+00,-1.459960e+02,6.162100e+01,-4.716800e+01,1.367190e+02,-4.034180e+02,-3.535200e+01,-2.770510e+02,-7.021500e+01,-3.711000e+00,1.545900e+02,-1.388670e+02,2.314500e+01
1.636720e+02,-6.806640e+02,3.857400e+01,1.074200e+01,4.228500e+01,-4.794900e+01,9.800000e-02,-1.552730e+02,6.279300e+01,-5.517600e+01,1.252930e+02,-4.011720e+02,-2.968800e+01,-2.820310e+02,-8.408200e+01,-7.422000e+00,1.437500e+02,-1.478520e+02,1.611300e+01
1.783200e+02,-6.550780e+02,5.439500e+01,3.457000e+01,5.732400e+01,-6.494100e+01,1.933600e+01,-1.361330e+02,7.324200e+01,-3.457000e+01,1.399410e+02,-3.701170e+02,-3.584000e+01,-2.556640e+02,-5.752000e+01,1.562500e+01,1.592770e+02,-1.268550e+02,3.974600e+01
1.976560e+02,-6.252930e+02,7.656300e+01,6.806600e+01,7.158200e+01,-7.675800e+01,3.623000e+01,-1.179690e+02,7.441400e+01,-1.982400e+01,1.560550e+02,-3.569340e+02,-4.941400e+01,-2.499020e+02,-3.076200e+01,2.841800e+01,1.794920e+02,-1.036130e+02,5.947300e+01
2.062500e+02,-6.089840e+02,9.189500e+01,9.218800e+01,7.734400e+01,-7.939500e+01,3.857400e+01,-1.055660e+02,6.650400e+01,-1.572300e+01,1.617190e+02,-3.578130e+02,-5.498000e+01,-2.422850e+02,-2.666000e+01,3.613300e+01,1.891600e+02,-9.179700e+01,6.748000e+01
2.178710e+02,-5.865230e+02,1.079100e+02,1.122070e+02,8.359400e+01,-8.505900e+01,4.658200e+01,-8.476600e+01,7.363300e+01,1.953000e+00,1.661130e+02,-3.292970e+02,-7.294900e+01,-2.100590e+02,-2.197300e+01,6.093700e+01,1.996090e+02,-7.871100e+01,8.554700e+01
2.219730e+02,-5.769530e+02,1.169920e+02,1.143550e+02,8.701200e+01,-9.111300e+01,5.224600e+01,-7.392600e+01,7.636700e+01,1.855000e+00,1.523440e+02,-3.203130e+02,-8.105500e+01,-2.102540e+02,-1.494100e+01,6.328100e+01,2.015630e+02,-7.236300e+01,9.287100e+01
2.024410e+02,-6.054690e+02,8.125000e+01,9.189500e+01,6.308600e+01,-6.855500e+01,3.222700e+01,-9.580100e+01,6.562500e+01,-1.709000e+01,1.526370e+02,-3.731450e+02,-8.252000e+01,-2.636720e+02,-3.574200e+01,3.046900e+01,1.813480e+02,-9.628900e+01,7.070300e+01
1.859380e+02,-6.285160e+02,6.455100e+01,7.060500e+01,4.912100e+01,-5.244100e+01,1.279300e+01,-1.219730e+02,5.703100e+01,-3.095700e+01,1.375980e+02,-3.755860e+02,-7.861300e+01,-2.603520e+02,-6.201200e+01,1.269500e+01,1.671880e+02,-1.157230e+02,50
1.721680e+02,-6.533200e+02,5.820300e+01,4.638700e+01,5.097700e+01,-5.244100e+01,8.496000e+00,-1.375000e+02,5.947300e+01,-3.789100e+01,1.384770e+02,-3.845700e+02,-5.957000e+01,-2.599610e+02,-7.080100e+01,5.860000e-01,1.570310e+02,-1.270510e+02,3.828100e+01
1.629880e+02,-6.721680e+02,3.906200e+01,3.339800e+01,4.980500e+01,-5.224600e+01,-2.637000e+00,-1.520510e+02,5.156200e+01,-4.960900e+01,1.218750e+02,-4.083980e+02,-5.400400e+01,-2.676760e+02,-7.314500e+01,-1.201200e+01,1.500980e+02,-1.367190e+02,2.470700e+01
1.534180e+02,-6.853520e+02,3.212900e+01,1.416000e+01,4.863300e+01,-5.283200e+01,-6.738000e+00,-1.673830e+02,5.341800e+01,-6.582000e+01,1.047850e+02,-4.106450e+02,-4.921900e+01,-2.848630e+02,-7.734400e+01,-2.382800e+01,1.408200e+02,-1.460940e+02,1.523400e+01
1.674800e+02,-6.592770e+02,5.302700e+01,4.101600e+01,6.250000e+01,-6.669900e+01,9.570000e+00,-1.475590e+02,6.250000e+01,-5.087900e+01,1.176760e+02,-3.875000e+02,-5.468800e+01,-2.708010e+02,-6.621100e+01,-2.344000e+00,1.576170e+02,-1.266600e+02,3.662100e+01
1.916020e+02,-6.254880e+02,6.865200e+01,7.607400e+01,7.451200e+01,-7.753900e+01,2.255900e+01,-1.213870e+02,6.074200e+01,-2.753900e+01,1.499020e+02,-3.655270e+02,-6.650400e+01,-2.457030e+02,-4.863300e+01,2.666000e+01,1.790040e+02,-1.036130e+02,5.644500e+01
2.050780e+02,-6.078120e+02,8.798800e+01,8.720700e+01,8.300800e+01,-8.398400e+01,2.968800e+01,-1.030270e+02,5.839800e+01,-9.668000e+00,1.628910e+02,-3.402340e+02,-7.949200e+01,-2.271480e+02,-3.974600e+01,4.326200e+01,1.892580e+02,-8.964800e+01,6.943400e+01
2.061520e+02,-5.951170e+02,9.482400e+01,1.032230e+02,8.750000e+01,-8.916000e+01,3.535200e+01,-8.984400e+01,6.132800e+01,2.930000e-01,1.579100e+02,-3.271480e+02,-1.011720e+02,-2.160160e+02,-3.154300e+01,5.947300e+01,1.929690e+02,-8.056600e+01,8.164100e+01
2.102540e+02,-5.838870e+02,9.580100e+01,1.217770e+02,8.935500e+01,-9.384800e+01,4.248000e+01,-7.949200e+01,6.543000e+01,6.445000e+00,1.568360e+02,-3.359380e+02,-1.158200e+02,-2.072270e+02,-2.011700e+01,6.835900e+01,1.979490e+02,-7.324200e+01,9.062500e+01
2.040040e+02,-6.011720e+02,8.984400e+01,9.394500e+01,7.138700e+01,-7.734400e+01,2.304700e+01,-1.016600e+02,5.400400e+01,-1.640600e+01,1.600590e+02,-3.524410e+02,-9.257800e+01,-2.416020e+02,-3.877000e+01,3.769500e+01,1.837890e+02,-9.365200e+01,6.669900e+01
1.870120e+02,-6.277340e+02,6.787100e+01,6.894500e+01,5.488300e+01,-5.820300e+01,-8.790000e-01,-1.207030e+02,4.218800e+01,-3.125000e+01,1.346680e+02,-3.704100e+02,-8.584000e+01,-2.547850e+02,-6.064500e+01,2.197300e+01,1.680660e+02,-1.154300e+02,4.550800e+01
1.712890e+02,-6.484370e+02,4.453100e+01,5.595700e+01,4.863300e+01,-5.019500e+01,-5.176000e+00,-1.343750e+02,4.834000e+01,-3.994100e+01,1.174800e+02,-3.703130e+02,-7.128900e+01,-2.603520e+02,-6.464800e+01,1.357400e+01,1.574220e+02,-1.279300e+02,3.613300e+01
1.617190e+02,-6.708980e+02,4.033200e+01,3.476600e+01,4.716800e+01,-4.941400e+01,-8.105000e+00,-1.548830e+02,5.078100e+01,-5.419900e+01,1.132810e+02,-4.129880e+02,-7.070300e+01,-2.929690e+02,-7.832000e+01,-7.520000e+00,1.497070e+02,-1.372070e+02,2.402300e+01
1.507810e+02,-6.905270e+02,4.970700e+01,8.398000e+00,4.902300e+01,-5.449200e+01,-1.279300e+01,-1.692380e+02,4.921900e+01,-6.689500e+01,9.111300e+01,-4.335940e+02,-6.552700e+01,-3.087890e+02,-9.072300e+01,-2.548800e+01,1.394530e+02,-1.465820e+02,1.220700e+01
1.727540e+02,-6.552730e+02,4.169900e+01,4.482400e+01,5.664100e+01,-6.220700e+01,8.008000e+00,-1.399410e+02,6.445300e+01,-3.798800e+01,1.351560e+02,-3.911130e+02,-4.404300e+01,-2.591800e+02,-6.914100e+01,1.250000e+01,1.603520e+02,-1.252930e+02,4.023400e+01
1.956050e+02,-6.281250e+02,7.363300e+01,6.484400e+01,7.480500e+01,-7.851600e+01,2.558600e+01,-1.175780e+02,7.060500e+01,-1.894500e+01,1.602540e+02,-3.649410e+02,-5.644500e+01,-2.424800e+02,-4.658200e+01,3.535200e+01,1.799800e+02,-1.021480e+02,6.113300e+01
2.069340e+02,-6.097660e+02,9.091800e+01,8.369100e+01,8.252000e+01,-8.418000e+01,3.291000e+01,-1.075200e+02,6.806600e+01,-1.123000e+01,1.639650e+02,-3.628910e+02,-7.138700e+01,-2.497070e+02,-2.988300e+01,3.867200e+01,1.888670e+02,-8.994100e+01,7.138700e+01
2.097660e+02,-5.920900e+02,9.072300e+01,1.054690e+02,8.916000e+01,-9.082000e+01,4.052700e+01,-9.541000e+01,6.845700e+01,-4.880000e-01,1.526370e+02,-3.355470e+02,-8.955100e+01,-2.116210e+02,-1.494100e+01,5.214800e+01,1.921870e+02,-8.222700e+01,8.144500e+01
2.186520e+02,-5.827150e+02,1.046870e+02,1.134770e+02,9.814500e+01,-1.025390e+02,4.677700e+01,-8.886700e+01,6.943400e+01,5.957000e+00,1.598630e+02,-3.199220e+02,-1.134770e+02,-1.940430e+02,-9.473000e+00,5.937500e+01,1.970700e+02,-7.392600e+01,8.798800e+01
2.148440e+02,-5.977540e+02,9.814500e+01,1.043950e+02,7.255900e+01,-7.851600e+01,3.320300e+01,-1.043950e+02,7.080100e+01,-6.934000e+00,1.804690e+02,-3.458980e+02,-8.584000e+01,-2.196290e+02,-2.343800e+01,3.681600e+01,1.896480e+02,-9.013700e+01,7.226600e+01
1.910160e+02,-6.262700e+02,7.841800e+01,7.587900e+01,5.752000e+01,-6.132800e+01,1.171900e+01,-1.225590e+02,6.005900e+01,-2.226600e+01,1.565430e+02,-3.675780e+02,-8.740200e+01,-2.412110e+02,-6.132800e+01,2.285200e+01,1.719730e+02,-1.121090e+02,5.107400e+01
1.729490e+02,-6.489260e+02,5.107400e+01,5.048800e+01,5.293000e+01,-5.664100e+01,5.859000e+00,-1.343750e+02,6.230500e+01,-3.222700e+01,1.251950e+02,-3.763670e+02,-7.871100e+01,-2.503910e+02,-7.187500e+01,1.728500e+01,1.575200e+02,-1.272460e+02,3.955100e+01
1.656250e+02,-6.695310e+02,4.228500e+01,2.470700e+01,5.576200e+01,-5.859400e+01,1.171900e+01,-1.474610e+02,7.431600e+01,-4.199200e+01,1.133790e+02,-3.878910e+02,-6.377000e+01,-2.726560e+02,-6.904300e+01,2.051000e+00,1.497070e+02,-1.343750e+02,3.232400e+01
1.474610e+02,-6.923830e+02,3.085900e+01,7.227000e+00,4.931600e+01,-5.400400e+01,7.422000e+00,-1.665040e+02,7.460900e+01,-5.752000e+01,9.296900e+01,-4.174800e+02,-5.576200e+01,-2.952150e+02,-7.763700e+01,-1.621100e+01,1.358400e+02,-1.473630e+02,1.953100e+01
1.664060e+02,-6.614260e+02,4.033200e+01,4.101600e+01,5.869100e+01,-6.445300e+01,1.787100e+01,-1.472660e+02,7.441400e+01,-3.828100e+01,1.317380e+02,-3.826170e+02,-5.195300e+01,-2.653320e+02,-5.839800e+01,1.171900e+01,1.549800e+02,-1.285160e+02,3.916000e+01
1.942380e+02,-6.265630e+02,6.972700e+01,6.943400e+01,7.470700e+01,-7.890600e+01,2.959000e+01,-1.267580e+02,7.060500e+01,-2.158200e+01,1.591800e+02,-3.518550e+02,-5.791000e+01,-2.631840e+02,-3.857400e+01,2.959000e+01,1.774410e+02,-1.048830e+02,5.810500e+01
1.999020e+02,-6.167970e+02,7.929700e+01,9.140600e+01,7.841800e+01,-7.949200e+01,3.613300e+01,-1.125000e+02,6.845700e+01,-1.689500e+01,1.676760e+02,-3.900390e+02,-7.246100e+01,-2.706050e+02,-3.408200e+01,3.271500e+01,1.833980e+02,-9.345700e+01,6.816400e+01
2.115230e+02,-5.933590e+02,9.101600e+01,1.083980e+02,8.525400e+01,-8.769500e+01,5.107400e+01,-9.765600e+01,8.330100e+01,2.832000e+00,1.792970e+02,-3.307620e+02,-7.724600e+01,-2.101560e+02,-2.373000e+01,6.103500e+01,1.918950e+02,-8.242200e+01,8.574200e+01
2.322270e+02,-5.652340e+02,1.158200e+02,1.235350e+02,9.726600e+01,-1.004880e+02,5.791000e+01,-8.720700e+01,8.378900e+01,1.533200e+01,1.905270e+02,-2.960940e+02,-7.900400e+01,-1.867190e+02,-9.277000e+00,7.812500e+01,2.075200e+02,-6.835900e+01,9.599600e+01
2.217770e+02,-5.854490e+02,1.015630e+02,9.921900e+01,8.632800e+01,-9.179700e+01,3.877000e+01,-1.066410e+02,6.767600e+01,-2.441000e+00,1.775390e+02,-3.136720e+02,-7.207000e+01,-1.995120e+02,-1.308600e+01,5.722700e+01,1.934570e+02,-8.759800e+01,7.187500e+01
1.965820e+02,-6.185550e+02,7.187500e+01,6.894500e+01,6.679700e+01,-7.334000e+01,1.923800e+01,-1.251950e+02,5.810500e+01,-1.894500e+01,1.551760e+02,-3.377930e+02,-6.923800e+01,-2.252930e+02,-2.959000e+01,3.818400e+01,1.715820e+02,-1.116210e+02,4.980500e+01
1.740230e+02,-6.454100e+02,5.068400e+01,5.371100e+01,5.673800e+01,-6.035200e+01,1.230500e+01,-1.383790e+02,5.957000e+01,-3.271500e+01,1.260740e+02,-3.775390e+02,-6.005900e+01,-2.562500e+02,-4.335900e+01,2.285200e+01,1.568360e+02,-1.269530e+02,3.613300e+01
1.681640e+02,-6.623050e+02,5.078100e+01,3.554700e+01,5.927700e+01,-6.210900e+01,6.348000e+00,-1.565430e+02,5.576200e+01,-4.960900e+01,1.135740e+02,-3.932620e+02,-7.255900e+01,-2.749020e+02,-6.093700e+01,5.860000e-01,1.509770e+02,-1.347660e+02,2.128900e+01
1.563480e+02,-6.852540e+02,4.326200e+01,1.152300e+01,5.507800e+01,-5.976600e+01,-5.664000e+00,-1.775390e+02,4.814500e+01,-6.767600e+01,9.531200e+01,-4.109380e+02,-7.734400e+01,-2.934570e+02,-8.095700e+01,-2.207000e+01,1.381840e+02,-1.490230e+02,3.125000e+00
1.770510e+02,-6.541990e+02,5.859400e+01,4.277300e+01,5.869100e+01,-6.503900e+01,1.103500e+01,-150,6.377000e+01,-4.296900e+01,1.361330e+02,-3.687500e+02,-5.400400e+01,-2.527340e+02,-6.484400e+01,1.015600e+01,1.598630e+02,-1.285160e+02,2.812500e+01
1.975590e+02,-6.227540e+02,7.002000e+01,6.894500e+01,7.587900e+01,-8.076200e+01,3.730500e+01,-1.228520e+02,8.085900e+01,-1.943400e+01,1.761720e+02,-3.430660e+02,-3.798800e+01,-2.346680e+02,-3.144500e+01,3.632800e+01,1.777340e+02,-1.044920e+02,5.449200e+01
2.115230e+02,-6.038090e+02,8.359400e+01,8.769500e+01,8.544900e+01,-8.857400e+01,4.960900e+01,-1.080080e+02,8.427700e+01,-6.738000e+00,1.824220e+02,-3.463870e+02,-5.673800e+01,-2.337890e+02,-1.640600e+01,5.048800e+01,1.887700e+02,-8.984400e+01,6.816400e+01
2.169920e+02,-5.885740e+02,9.648400e+01,1.038090e+02,8.632800e+01,-8.916000e+01,4.970700e+01,-9.482400e+01,7.900400e+01,5.273000e+00,1.784180e+02,-3.305660e+02,-6.533200e+01,-2.066410e+02,-9.766000e+00,7.060500e+01,1.942380e+02,-8.193400e+01,7.744100e+01
2.324220e+02,-5.613280e+02,1.115230e+02,1.299800e+02,9.199200e+01,-9.394500e+01,5.576200e+01,-6.923800e+01,8.291000e+01,2.763700e+01,1.816410e+02,-3.063480e+02,-8.691400e+01,-1.752930e+02,0,9.492200e+01,2.085940e+02,-6.806600e+01,9.423800e+01
2.142580e+02,-5.871090e+02,8.955100e+01,1.108400e+02,7.431600e+01,-7.832000e+01,3.144500e+01,-9.052700e+01,6.650400e+01,3.906000e+00,1.664060e+02,-3.417970e+02,-9.882800e+01,-2.188480e+02,-2.509800e+01,6.259800e+01,1.903320e+02,-9.033200e+01,6.865200e+01
1.853520e+02,-6.228520e+02,5.781300e+01,8.242200e+01,5.419900e+01,-5.742200e+01,9.082000e+00,-1.124020e+02,5.410200e+01,-2.050800e+01,1.336910e+02,-3.735350e+02,-9.326200e+01,-2.520510e+02,-4.580100e+01,3.505900e+01,1.678710e+02,-1.152340e+02,4.531200e+01
1.703130e+02,-6.430660e+02,4.375000e+01,5.839800e+01,4.716800e+01,-4.960900e+01,-1.562000e+00,-1.229490e+02,5.166000e+01,-2.724600e+01,1.208980e+02,-3.591800e+02,-8.027300e+01,-2.398440e+02,-5.664100e+01,3.037100e+01,1.566410e+02,-1.289060e+02,3.642600e+01
1.607420e+02,-6.653320e+02,4.726600e+01,3.740200e+01,5.058600e+01,-5.293000e+01,-1.855000e+00,-1.388670e+02,5.380900e+01,-4.267600e+01,1.158200e+02,-3.860350e+02,-7.353500e+01,-2.571290e+02,-6.191400e+01,6.348000e+00,1.489260e+02,-1.351560e+02,2.509800e+01
1.423830e+02,-6.921880e+02,3.027300e+01,8.887000e+00,4.394500e+01,-4.834000e+01,-6.738000e+00,-1.574220e+02,5.273400e+01,-6.142600e+01,1.001950e+02,-4.119140e+02,-5.820300e+01,-2.839840e+02,-7.128900e+01,-1.621100e+01,1.321290e+02,-1.511720e+02,1.210900e+01
1.551760e+02,-6.709960e+02,25,2.646500e+01,5.087900e+01,-5.693400e+01,1.377000e+01,-1.308590e+02,7.080100e+01,-3.623000e+01,1.297850e+02,-3.872070e+02,-5.576200e+01,-2.754880e+02,-5.800800e+01,1.162100e+01,1.442380e+02,-1.351560e+02,3.877000e+01
1.793950e+02,-6.398440e+02,4.960900e+01,6.152300e+01,6.640600e+01,-7.099600e+01,2.900400e+01,-1.083980e+02,7.871100e+01,-1.201200e+01,1.470700e+02,-3.682620e+02,-7.041000e+01,-2.363280e+02,-4.863300e+01,3.740200e+01,1.661130e+02,-1.112300e+02,6.171900e+01
2.016600e+02,-6.128910e+02,7.226600e+01,8.320300e+01,7.646500e+01,-8.027300e+01,3.681600e+01,-9.296900e+01,7.587900e+01,-6.840000e-01,1.478520e+02,-3.453120e+02,-8.418000e+01,-2.103520e+02,-3.652300e+01,5.556600e+01,1.820310e+02,-9.335900e+01,7.402300e+01
2.024410e+02,-6.000980e+02,8.398400e+01,9.238300e+01,7.900400e+01,-8.232400e+01,3.877000e+01,-7.910200e+01,7.304700e+01,9.766000e+00,1.611330e+02,-3.232420e+02,-9.628900e+01,-1.995120e+02,-3.144500e+01,7.011700e+01,1.848630e+02,-8.496100e+01,8.398400e+01
2.082030e+02,-5.810550e+02,9.228500e+01,1.193360e+02,8.427700e+01,-8.847700e+01,4.765600e+01,-6.328100e+01,7.734400e+01,2.314500e+01,1.705080e+02,-3.132810e+02,-1.116210e+02,-1.870120e+02,-1.728500e+01,8.349600e+01,1.941410e+02,-7.255900e+01,9.765600e+01
1.901370e+02,-6.092770e+02,7.959000e+01,8.818400e+01,7.392600e+01,-7.988300e+01,3.027300e+01,-8.750000e+01,6.464800e+01,-1.367000e+00,1.396480e+02,-3.405270e+02,-1.004880e+02,-2.146480e+02,-2.783200e+01,5.459000e+01,1.741210e+02,-9.287100e+01,7.431600e+01
1.683590e+02,-6.411130e+02,6.142600e+01,5.712900e+01,6.064500e+01,-6.435500e+01,1.621100e+01,-1.081050e+02,6.201200e+01,-1.865200e+01,125,-3.583010e+02,-8.935500e+01,-2.416020e+02,-4.394500e+01,3.388700e+01,1.541020e+02,-1.147460e+02,5.439500e+01
1.529300e+02,-6.628910e+02,4.804700e+01,4.453100e+01,5.097700e+01,-5.205100e+01,3.320000e+00,-1.299800e+02,5.263700e+01,-3.681600e+01,1.015630e+02,-3.876950e+02,-1.015630e+02,-2.644530e+02,-6.640600e+01,1.132800e+01,1.448240e+02,-1.301760e+02,3.632800e+01
1.436520e+02,-6.830080e+02,2.851600e+01,1.855500e+01,5.742200e+01,-5.742200e+01,-3.910000e-01,-1.461910e+02,4.931600e+01,-4.834000e+01,8.183600e+01,-4.013670e+02,-8.847700e+01,-2.778320e+02,-6.923800e+01,-4.785000e+00,1.364260e+02,-1.378910e+02,2.509800e+01
1.414060e+02,-6.925780e+02,9.082000e+00,4.980000e+00,3.818400e+01,-4.257800e+01,-7.520000e+00,-1.556640e+02,5.537100e+01,-5.429700e+01,1.177730e+02,-4.094730e+02,-4.335900e+01,-2.921870e+02,-8.232400e+01,-1.308600e+01,1.307620e+02,-1.492190e+02,1.728500e+01
1.538090e+02,-6.734370e+02,3.007800e+01,2.451200e+01,4.755900e+01,-5.371100e+01,7.129000e+00,-1.385740e+02,6.962900e+01,-3.691400e+01,1.337890e+02,-3.931640e+02,-6.074200e+01,-2.721680e+02,-7.919900e+01,1.005900e+01,1.450200e+02,-1.333980e+02,3.701200e+01
1.703130e+02,-6.495120e+02,5.166000e+01,4.834000e+01,6.357400e+01,-7.021500e+01,2.480500e+01,-1.205080e+02,7.675800e+01,-2.128900e+01,1.246090e+02,-3.848630e+02,-8.925800e+01,-2.611330e+02,-6.201200e+01,2.587900e+01,1.612300e+02,-1.109380e+02,5.673800e+01
1.876950e+02,-6.246090e+02,7.744100e+01,7.011700e+01,8.095700e+01,-8.369100e+01,3.339800e+01,-1.074220e+02,7.255900e+01,-1.035200e+01,1.133790e+02,-3.649410e+02,-1.093750e+02,-2.431640e+02,-4.707000e+01,4.023400e+01,1.751950e+02,-9.296900e+01,6.787100e+01
1.992190e+02,-6.027340e+02,9.326200e+01,9.257800e+01,8.017600e+01,-8.164100e+01,3.115200e+01,-8.750000e+01,6.601600e+01,4.297000e+00,1.416020e+02,-3.443360e+02,-1.024410e+02,-2.424800e+02,-3.935500e+01,5.957000e+01,1.855470e+02,-8.320300e+01,7.880900e+01
2.222660e+02,-5.697270e+02,9.511700e+01,1.269530e+02,8.418000e+01,-8.671900e+01,4.043000e+01,-6.679700e+01,6.748000e+01,2.168000e+01,1.871090e+02,-3.092770e+02,-8.886700e+01,-1.894530e+02,-1.630900e+01,8.564500e+01,2.041990e+02,-6.718800e+01,9.550800e+01
