FP1,FP2,F3,F4,C3,C4,P3,P4,O1,O2,F7, F8,T3,T4,T5,T6,FZ,CZ,PZ
2.168000e+01,-4.636720e+02,5.634800e+01,1.054700e+01,7.617000e+00,-9.277000e+00,7.314500e+01,9.267600e+01,4.433600e+01,6.582000e+01,6.904300e+01,-1.946290e+02,-1.474600e+01,-2.099600e+01,-4.688000e+00,-6.250000e+00,9.834000e+01,2.273440e+02,8.847700e+01
3.115200e+01,-4.409180e+02,6.787100e+01,3.466800e+01,6.152000e+00,-9.082000e+00,6.494100e+01,1.089840e+02,2.851600e+01,8.046900e+01,7.568400e+01,-1.802730e+02,-25,5.860000e-01,-3.418000e+00,1.503900e+01,1.070310e+02,2.351560e+02,9.609400e+01
3.828100e+01,-4.298830e+02,7.246100e+01,4.736300e+01,6.934000e+00,-1.191400e+01,7.363300e+01,1.187500e+02,3.476600e+01,9.140600e+01,8.955100e+01,-1.633790e+02,-2.734400e+01,9.668000e+00,1.201200e+01,2.031300e+01,1.119140e+02,2.426760e+02,1.055660e+02
1.904300e+01,-4.591800e+02,4.707000e+01,1.845700e+01,-1.054700e+01,4.395000e+00,5.937500e+01,9.912100e+01,3.183600e+01,7.187500e+01,6.660200e+01,-2.093750e+02,-3.105500e+01,-2.285200e+01,-1.123000e+01,-6.152000e+00,9.150400e+01,2.214840e+02,8.535200e+01
-2.051000e+00,-4.855470e+02,2.666000e+01,-3.125000e+00,-2.275400e+01,1.894500e+01,4.003900e+01,7.919900e+01,2.031300e+01,5.019500e+01,4.433600e+01,-2.115230e+02,-2.265600e+01,-3.183600e+01,-3.818400e+01,-2.197300e+01,7.529300e+01,1.992190e+02,6.298800e+01
-1.738300e+01,-5.083010e+02,1.406200e+01,-2.675800e+01,-2.568400e+01,2.363300e+01,3.193400e+01,6.728500e+01,1.884800e+01,4.345700e+01,3.115200e+01,-2.147460e+02,-1.308600e+01,-4.072300e+01,-4.541000e+01,-2.949200e+01,6.435500e+01,1.864260e+02,5.156200e+01
-2.558600e+01,-5.295900e+02,4.004000e+00,-4.804700e+01,-2.578100e+01,2.441400e+01,3.095700e+01,5.097700e+01,2.080100e+01,3.203100e+01,2.031300e+01,-2.475590e+02,-7.520000e+00,-7.343700e+01,-4.970700e+01,-5.146500e+01,5.507800e+01,1.777340e+02,4.072300e+01
-3.886700e+01,-5.505860e+02,-9.473000e+00,-6.562500e+01,-3.027300e+01,2.607400e+01,2.793000e+01,3.515600e+01,2.002000e+01,1.972700e+01,7.715000e+00,-2.709960e+02,6.840000e-01,-8.857400e+01,-5.224600e+01,-6.923800e+01,4.228500e+01,1.655270e+02,2.959000e+01
-1.845700e+01,-5.182620e+02,1.220700e+01,-3.330100e+01,-1.377000e+01,7.129000e+00,4.941400e+01,5.390600e+01,3.535200e+01,3.798800e+01,3.105500e+01,-2.457030e+02,-3.027000e+00,-5.732400e+01,-2.939500e+01,-4.218800e+01,6.220700e+01,1.867190e+02,5.273400e+01
2.930000e+00,-4.884770e+02,3.710900e+01,-6.738000e+00,2.539000e+00,-6.152000e+00,7.099600e+01,75,4.794900e+01,5.488300e+01,5.410200e+01,-2.218750e+02,-1.630900e+01,-3.613300e+01,-7.910000e+00,-2.148400e+01,8.154300e+01,2.111330e+02,7.597700e+01
1.572300e+01,-4.696290e+02,5.127000e+01,3.418000e+00,1.123000e+01,-1.279300e+01,8.564500e+01,9.072300e+01,5.585900e+01,6.738300e+01,7.021500e+01,-1.980470e+02,-1.152300e+01,-2.373000e+01,8.691000e+00,-9.375000e+00,8.984400e+01,225,9.091800e+01
2.216800e+01,-4.505860e+02,5.947300e+01,2.656300e+01,1.113300e+01,-1.162100e+01,9.052700e+01,1.073240e+02,5.439500e+01,8.154300e+01,7.812500e+01,-1.748050e+02,-1.240200e+01,-8.790000e-01,1.748000e+01,7.227000e+00,9.834000e+01,2.348630e+02,1.037110e+02
3.281200e+01,-4.327150e+02,7.011700e+01,4.589800e+01,1.298800e+01,-1.562500e+01,9.755900e+01,1.182620e+02,5.664100e+01,9.218800e+01,8.339800e+01,-1.692380e+02,-2.207000e+01,1.064500e+01,2.558600e+01,1.875000e+01,1.083010e+02,2.449220e+02,1.136720e+02
9.570000e+00,-4.643550e+02,4.502000e+01,2.050800e+01,-2.832000e+00,-3.910000e-01,8.291000e+01,9.668000e+01,4.951200e+01,7.226600e+01,6.308600e+01,-2.074220e+02,-2.080100e+01,-1.972700e+01,1.132800e+01,-1.074000e+00,8.652300e+01,2.222660e+02,9.179700e+01
-1.308600e+01,-4.950200e+02,2.031300e+01,-4.980000e+00,-1.845700e+01,1.523400e+01,6.445300e+01,7.763700e+01,3.974600e+01,5.166000e+01,3.974600e+01,-2.201170e+02,-2.060500e+01,-4.511700e+01,-9.277000e+00,-2.275400e+01,6.855500e+01,200,7.011700e+01
-2.265600e+01,-5.138670e+02,7.617000e+00,-2.851600e+01,-2.460900e+01,2.285200e+01,5.117200e+01,6.142600e+01,3.447300e+01,3.701200e+01,2.548800e+01,-2.240230e+02,-1.718700e+01,-7.207000e+01,-3.759800e+01,-4.248000e+01,6.064500e+01,1.875980e+02,5.605500e+01
-3.447300e+01,-5.345700e+02,-6.543000e+00,-3.935500e+01,-3.144500e+01,2.919900e+01,3.613300e+01,4.150400e+01,2.207000e+01,1.767600e+01,1.181600e+01,-2.782230e+02,-1.875000e+01,-1.059570e+02,-6.103500e+01,-6.806600e+01,5.273400e+01,1.758790e+02,3.798800e+01
-3.837900e+01,-5.469730e+02,-1.220700e+01,-5.673800e+01,-2.871100e+01,2.392600e+01,3.896500e+01,3.007800e+01,3.056600e+01,1.064500e+01,9.570000e+00,-2.786130e+02,-2.246000e+00,-8.847700e+01,-5.439500e+01,-7.636700e+01,4.482400e+01,1.671880e+02,3.183600e+01
-1.464800e+01,-5.170900e+02,1.289100e+01,-4.111300e+01,-8.984000e+00,3.320000e+00,6.269500e+01,5.478500e+01,4.658200e+01,3.798800e+01,3.320300e+01,-2.204100e+02,8.398000e+00,-4.043000e+01,-2.490200e+01,-4.511700e+01,6.484400e+01,1.901370e+02,5.878900e+01
7.227000e+00,-4.854490e+02,3.828100e+01,-1.044900e+01,4.297000e+00,-7.227000e+00,7.558600e+01,7.939500e+01,4.951200e+01,6.259800e+01,5.898400e+01,-2.018550e+02,-2.734000e+00,-2.343800e+01,-9.180000e+00,-1.435500e+01,8.662100e+01,2.144530e+02,8.037100e+01
2.011700e+01,-4.649410e+02,5.175800e+01,1.210900e+01,8.594000e+00,-1.015600e+01,8.476600e+01,9.482400e+01,5.312500e+01,7.480500e+01,7.041000e+01,-1.961910e+02,-1.201200e+01,-1.669900e+01,9.770000e-01,-5.566000e+00,9.716800e+01,2.281250e+02,9.375000e+01
2.382800e+01,-4.513670e+02,5.898400e+01,2.959000e+01,8.789000e+00,-9.082000e+00,9.179700e+01,1.106450e+02,5.771500e+01,8.554700e+01,7.265600e+01,-1.969730e+02,-2.314500e+01,-1.660200e+01,1.220700e+01,7.129000e+00,1.014650e+02,2.357420e+02,1.061520e+02
3.945300e+01,-4.284180e+02,7.441400e+01,4.892600e+01,1.445300e+01,-1.748000e+01,1.030270e+02,1.230470e+02,6.543000e+01,1.021480e+02,8.388700e+01,-1.623050e+02,-2.841800e+01,2.832000e+01,2.744100e+01,3.623000e+01,1.137700e+02,2.473630e+02,1.183590e+02
2.578100e+01,-4.525390e+02,5.488300e+01,1.982400e+01,1.172000e+00,-5.078000e+00,8.896500e+01,1.006840e+02,5.664100e+01,8.232400e+01,7.382800e+01,-1.700200e+02,-1.865200e+01,5.957000e+00,9.277000e+00,1.396500e+01,9.619100e+01,2.269530e+02,9.619100e+01
7.715000e+00,-4.801760e+02,3.076200e+01,-3.516000e+00,-1.582000e+01,1.269500e+01,6.357400e+01,8.027300e+01,4.599600e+01,6.240200e+01,5.078100e+01,-1.982420e+02,-1.787100e+01,-2.382800e+01,-2.031300e+01,-1.074200e+01,8.085900e+01,2.054690e+02,7.353500e+01
-5.371000e+00,-5.001950e+02,1.650400e+01,-1.699200e+01,-2.138700e+01,2.089800e+01,5.361300e+01,6.347700e+01,4.209000e+01,4.853500e+01,3.408200e+01,-2.153320e+02,-1.298800e+01,-4.082000e+01,-3.222700e+01,-2.812500e+01,7.324200e+01,1.917970e+02,5.966800e+01
-1.015600e+01,-5.168950e+02,1.308600e+01,-3.232400e+01,-2.011700e+01,1.962900e+01,4.609400e+01,4.580100e+01,3.447300e+01,3.339800e+01,3.046900e+01,-2.391600e+02,-8.790000e-01,-5.546900e+01,-3.779300e+01,-4.550800e+01,6.914100e+01,1.839840e+02,4.384800e+01
-2.148400e+01,-5.377930e+02,2.344000e+00,-5.185500e+01,-2.451200e+01,2.148400e+01,3.437500e+01,2.636700e+01,2.617200e+01,1.621100e+01,2.412100e+01,-2.607420e+02,7.910000e+00,-8.076200e+01,-4.902300e+01,-6.103500e+01,5.839800e+01,1.703130e+02,2.714800e+01
-6.641000e+00,-5.135740e+02,2.226600e+01,-2.353500e+01,-1.328100e+01,6.641000e+00,4.951200e+01,4.189500e+01,3.349600e+01,2.900400e+01,3.427700e+01,-2.446290e+02,-6.152000e+00,-6.630900e+01,-3.418000e+01,-4.150400e+01,75,1.877930e+02,4.521500e+01
1.543000e+01,-4.833980e+02,5.087900e+01,-2.441000e+00,4.297000e+00,-8.984000e+00,7.119100e+01,6.464800e+01,4.404300e+01,4.150400e+01,5.332000e+01,-2.098630e+02,-1.757800e+01,-3.857400e+01,-1.308600e+01,-2.246100e+01,9.365200e+01,2.119140e+02,6.660200e+01
3.007800e+01,-4.621090e+02,6.191400e+01,1.435500e+01,1.298800e+01,-1.464800e+01,8.515600e+01,8.017600e+01,4.873000e+01,6.005900e+01,8.085900e+01,-1.926760e+02,-8.789000e+00,-1.845700e+01,5.566000e+00,-4.395000e+00,1.054690e+02,2.287110e+02,8.193400e+01
3.671900e+01,-4.423830e+02,6.796900e+01,3.818400e+01,1.113300e+01,-1.171900e+01,8.994100e+01,9.101600e+01,5.332000e+01,7.988300e+01,9.209000e+01,-1.821290e+02,-1.259800e+01,-1.660200e+01,1.386700e+01,1.025400e+01,1.147460e+02,2.388670e+02,9.492200e+01
4.873000e+01,-4.219730e+02,8.134800e+01,5.791000e+01,1.601600e+01,-1.582000e+01,9.902300e+01,1.057620e+02,5.625000e+01,9.257800e+01,9.873000e+01,-1.697270e+02,-2.539100e+01,5.371000e+00,2.724600e+01,2.490200e+01,1.265630e+02,2.513670e+02,1.068360e+02
3.330100e+01,-4.453130e+02,6.406300e+01,2.978500e+01,2.148000e+00,-4.590000e+00,8.144500e+01,8.652300e+01,4.404300e+01,6.982400e+01,7.959000e+01,-1.827150e+02,-2.324200e+01,-1.552700e+01,8.789000e+00,9.800000e-02,1.079100e+02,2.307620e+02,8.310500e+01
1.093700e+01,-4.767580e+02,4.052700e+01,3.125000e+00,-1.425800e+01,1.240200e+01,6.259800e+01,6.640600e+01,4.052700e+01,4.960900e+01,5.820300e+01,-2.048830e+02,-1.455100e+01,-3.222700e+01,-1.767600e+01,-2.158200e+01,8.769500e+01,2.076170e+02,6.162100e+01
4.785000e+00,-4.914060e+02,2.812500e+01,-9.473000e+00,-1.884800e+01,1.650400e+01,5.214800e+01,5.107400e+01,4.287100e+01,3.798800e+01,4.697300e+01,-2.162110e+02,-2.246000e+00,-4.472700e+01,-3.173800e+01,-3.222700e+01,8.164100e+01,1.946290e+02,4.941400e+01
-1.367000e+00,-5.081050e+02,2.089800e+01,-2.382800e+01,-1.738300e+01,1.523400e+01,4.570300e+01,3.359400e+01,3.984400e+01,2.128900e+01,3.652300e+01,-2.382810e+02,5.273000e+00,-7.138700e+01,-3.242200e+01,-5.449200e+01,7.793000e+01,1.871090e+02,3.632800e+01
-1.855500e+01,-5.342770e+02,3.613000e+00,-4.228500e+01,-2.714800e+01,2.265600e+01,2.773400e+01,1.484400e+01,2.519500e+01,3.223000e+00,1.543000e+01,-2.714840e+02,-7.617000e+00,-9.628900e+01,-5.253900e+01,-7.587900e+01,6.445300e+01,1.713870e+02,1.816400e+01
-7.617000e+00,-5.122070e+02,1.992200e+01,-1.591800e+01,-1.611300e+01,1.230500e+01,3.789100e+01,3.691400e+01,3.095700e+01,2.509800e+01,2.705100e+01,-2.484380e+02,-3.691400e+01,-7.041000e+01,-4.453100e+01,-4.814500e+01,7.929700e+01,1.887700e+02,3.867200e+01
1.259800e+01,-4.805660e+02,4.677700e+01,9.668000e+00,1.270000e+00,-3.516000e+00,5.888700e+01,6.074200e+01,3.535200e+01,4.589800e+01,5.546900e+01,-2.216800e+02,-1.806600e+01,-3.359400e+01,-1.865200e+01,-2.324200e+01,9.863300e+01,2.125980e+02,6.093700e+01
2.744100e+01,-4.651370e+02,6.455100e+01,1.162100e+01,1.259800e+01,-1.318400e+01,7.841800e+01,8.232400e+01,4.824200e+01,6.513700e+01,7.988300e+01,-1.969730e+02,7.715000e+00,-1.357400e+01,1.406200e+01,-4.883000e+00,1.069340e+02,2.296880e+02,8.203100e+01
3.261700e+01,-4.492190e+02,6.845700e+01,3.037100e+01,9.277000e+00,-9.961000e+00,8.173800e+01,1.020510e+02,5.380900e+01,8.242200e+01,8.066400e+01,-1.784180e+02,-4.785000e+00,4.590000e+00,2.011700e+01,1.630900e+01,1.108400e+02,2.379880e+02,9.668000e+01
4.668000e+01,-4.247070e+02,8.037100e+01,5.615200e+01,1.054700e+01,-1.181600e+01,8.437500e+01,1.216800e+02,5.302700e+01,9.882800e+01,9.121100e+01,-1.545900e+02,-2.724600e+01,2.168000e+01,1.455100e+01,3.642600e+01,1.239260e+02,2.516600e+02,1.106450e+02
2.714800e+01,-4.513670e+02,5.869100e+01,4.179700e+01,-6.250000e+00,3.516000e+00,6.572300e+01,9.677700e+01,3.837900e+01,7.128900e+01,6.757800e+01,-1.890620e+02,-3.027300e+01,-2.041000e+01,-1.250000e+01,-3.711000e+00,1.056640e+02,2.309570e+02,8.584000e+01
1.953000e+00,-4.871090e+02,3.330100e+01,1.025400e+01,-2.080100e+01,1.875000e+01,4.814500e+01,7.646500e+01,3.134800e+01,5.146500e+01,4.355500e+01,-2.417970e+02,-2.548800e+01,-4.375000e+01,-3.378900e+01,-2.705100e+01,8.339800e+01,2.071290e+02,6.543000e+01
-6.836000e+00,-5.009770e+02,2.119100e+01,-1.543000e+01,-2.382800e+01,2.373000e+01,4.433600e+01,6.630900e+01,3.623000e+01,4.648400e+01,3.564500e+01,-2.231450e+02,-1.113300e+01,-3.935500e+01,-3.867200e+01,-3.017600e+01,7.412100e+01,1.956050e+02,5.918000e+01
-1.318400e+01,-5.227540e+02,1.699200e+01,-3.652300e+01,-2.031300e+01,2.060500e+01,4.550800e+01,5.166000e+01,3.955100e+01,3.427700e+01,3.252000e+01,-2.447270e+02,-7.810000e-01,-5.830100e+01,-4.218800e+01,-5.039100e+01,6.796900e+01,1.897460e+02,5.058600e+01
-3.037100e+01,-5.503910e+02,1.950000e-01,-6.396500e+01,-2.607400e+01,2.324200e+01,3.652300e+01,3.173800e+01,3.584000e+01,1.552700e+01,1.884800e+01,-2.632810e+02,5.176000e+00,-8.505900e+01,-5.107400e+01,-7.753900e+01,5.205100e+01,1.733400e+02,3.447300e+01
-1.845700e+01,-5.292970e+02,1.377000e+01,-4.150400e+01,-1.533200e+01,1.142600e+01,5.127000e+01,5.341800e+01,4.941400e+01,3.964800e+01,2.939500e+01,-2.416990e+02,-2.148000e+00,-6.835900e+01,-3.574200e+01,-4.570300e+01,6.640600e+01,1.911130e+02,5.693400e+01
5.078000e+00,-4.953130e+02,4.140600e+01,-8.984000e+00,-6.840000e-01,-1.465000e+00,6.113300e+01,7.675800e+01,4.980500e+01,6.093700e+01,5.322300e+01,-2.138670e+02,-8.203000e+00,-4.179700e+01,-2.002000e+01,-2.041000e+01,8.828100e+01,2.154300e+02,7.763700e+01
2.187500e+01,-4.702150e+02,5.742200e+01,1.269500e+01,6.934000e+00,-7.910000e+00,6.826200e+01,9.287100e+01,4.599600e+01,6.933600e+01,7.392600e+01,-1.979490e+02,-1.171900e+01,-2.793000e+01,-2.930000e+00,-8.203000e+00,1.016600e+02,2.315430e+02,8.964800e+01
2.939500e+01,-4.545900e+02,6.347700e+01,2.978500e+01,7.227000e+00,-8.887000e+00,7.568400e+01,1.042970e+02,5.058600e+01,7.734400e+01,7.919900e+01,-1.932620e+02,-1.953100e+01,-2.734000e+00,1.035200e+01,8.790000e-01,1.071290e+02,2.395510e+02,1.012700e+02
4.257800e+01,-4.333980e+02,7.832000e+01,5.175800e+01,1.367200e+01,-1.601600e+01,8.847700e+01,1.213870e+02,5.605500e+01,9.043000e+01,8.525400e+01,-1.737300e+02,-2.890600e+01,2.031300e+01,2.675800e+01,2.343800e+01,1.194340e+02,2.537110e+02,1.158200e+02
2.138700e+01,-4.629880e+02,5.830100e+01,2.568400e+01,-2.051000e+00,-1.953000e+00,7.421900e+01,1.024410e+02,4.755900e+01,7.207000e+01,6.152300e+01,-2.194340e+02,-3.095700e+01,-3.007800e+01,1.103500e+01,-5.860000e-01,9.834000e+01,2.329100e+02,9.570300e+01
5.078000e+00,-4.866210e+02,3.671900e+01,1.064500e+01,-1.923800e+01,1.640600e+01,4.794900e+01,8.691400e+01,3.095700e+01,5.546900e+01,4.062500e+01,-2.330080e+02,-2.939500e+01,-5.068400e+01,-3.320300e+01,-1.796900e+01,8.339800e+01,2.104490e+02,7.060500e+01
-5.957000e+00,-5.030270e+02,2.148400e+01,-4.395000e+00,-2.480500e+01,2.226600e+01,3.906200e+01,6.982400e+01,2.910200e+01,4.599600e+01,3.457000e+01,-2.109380e+02,-2.021500e+01,-3.183600e+01,-4.951200e+01,-2.539100e+01,7.607400e+01,1.961910e+02,5.693400e+01
-1.035200e+01,-5.211910e+02,1.865200e+01,-3.017600e+01,-1.884800e+01,1.777300e+01,4.267600e+01,5.371100e+01,3.300800e+01,3.398400e+01,3.584000e+01,-2.320310e+02,-1.005900e+01,-5.068400e+01,-4.433600e+01,-4.912100e+01,7.050800e+01,1.906250e+02,4.814500e+01
-2.666000e+01,-5.476560e+02,2.441000e+00,-6.054700e+01,-2.656300e+01,2.363300e+01,3.164100e+01,3.310500e+01,2.558600e+01,1.484400e+01,2.324200e+01,-2.736330e+02,1.367000e+00,-9.628900e+01,-5.673800e+01,-7.675800e+01,5.429700e+01,1.731450e+02,3.046900e+01
-1.425800e+01,-5.275390e+02,1.699200e+01,-4.179700e+01,-1.425800e+01,9.863000e+00,4.863300e+01,5.449200e+01,3.916000e+01,3.818400e+01,3.759800e+01,-2.369140e+02,2.734000e+00,-5.322300e+01,-3.584000e+01,-4.150400e+01,6.835900e+01,1.900390e+02,5.244100e+01
9.082000e+00,-4.949220e+02,4.404300e+01,-9.668000e+00,4.297000e+00,-8.398000e+00,7.480500e+01,7.695300e+01,5.341800e+01,5.996100e+01,6.171900e+01,-2.047850e+02,-6.840000e-01,-2.841800e+01,-7.422000e+00,-1.328100e+01,8.916000e+01,2.154300e+02,7.656300e+01
2.246100e+01,-4.732420e+02,6.162100e+01,1.308600e+01,1.289100e+01,-1.484400e+01,8.691400e+01,9.326200e+01,5.615200e+01,7.460900e+01,7.207000e+01,-1.965820e+02,-1.767600e+01,-2.099600e+01,5.371000e+00,-1.562000e+00,1.005860e+02,2.314450e+02,9.140600e+01
2.392600e+01,-4.619140e+02,6.709000e+01,2.568400e+01,8.691000e+00,-1.035200e+01,8.359400e+01,1.116210e+02,5.058600e+01,9.394500e+01,7.031200e+01,-1.960940e+02,-3.515600e+01,-1.582000e+01,8.105000e+00,1.562500e+01,1.033200e+02,2.375980e+02,1.017580e+02
3.603500e+01,-4.395510e+02,8.310500e+01,4.658200e+01,1.328100e+01,-1.572300e+01,9.179700e+01,1.330080e+02,5.332000e+01,1.119140e+02,7.734400e+01,-1.757810e+02,-4.589800e+01,1.269500e+01,1.953100e+01,3.750000e+01,1.157230e+02,2.516600e+02,1.175780e+02
2.861300e+01,-4.530270e+02,6.826200e+01,2.880900e+01,5.176000e+00,-9.473000e+00,8.408200e+01,1.109380e+02,5.068400e+01,8.652300e+01,7.216800e+01,-1.771480e+02,-3.007800e+01,6.934000e+00,1.044900e+01,1.728500e+01,1.030270e+02,2.360350e+02,9.824200e+01
8.691000e+00,-4.813480e+02,4.794900e+01,5.078000e+00,-9.277000e+00,7.324000e+00,6.669900e+01,8.505900e+01,4.316400e+01,5.937500e+01,5.937500e+01,-2.027340e+02,-1.748000e+01,-2.539100e+01,-9.766000e+00,-9.570000e+00,8.584000e+01,2.140630e+02,7.519500e+01
-9.570000e+00,-5.072270e+02,2.841800e+01,-1.308600e+01,-1.972700e+01,2.011700e+01,5.478500e+01,6.923800e+01,3.955100e+01,4.755900e+01,4.462900e+01,-2.201170e+02,-3.809000e+00,-4.394500e+01,-2.197300e+01,-2.783200e+01,7.285200e+01,1.973630e+02,6.084000e+01
-1.503900e+01,-5.253910e+02,1.748000e+01,-2.968800e+01,-1.767600e+01,1.669900e+01,5.459000e+01,5.576200e+01,4.160200e+01,3.945300e+01,4.638700e+01,-2.389650e+02,7.617000e+00,-6.582000e+01,-2.441400e+01,-4.687500e+01,6.777300e+01,1.909180e+02,5.273400e+01
-3.193400e+01,-5.516600e+02,1.465000e+00,-5.224600e+01,-2.578100e+01,2.197300e+01,3.847700e+01,2.949200e+01,3.017600e+01,1.435500e+01,2.900400e+01,-2.672850e+02,1.250000e+01,-1.103520e+02,-4.394500e+01,-7.480500e+01,5.146500e+01,1.724610e+02,3.115200e+01
-2.412100e+01,-5.387700e+02,1.416000e+01,-4.072300e+01,-1.552700e+01,8.984000e+00,4.960900e+01,4.492200e+01,3.613300e+01,2.988300e+01,3.945300e+01,-2.548830e+02,9.473000e+00,-8.818400e+01,-2.568400e+01,-5.332000e+01,6.035200e+01,1.864260e+02,4.785200e+01
-1.270000e+00,-5.059570e+02,4.306600e+01,-1.328100e+01,4.688000e+00,-8.105000e+00,7.412100e+01,7.089800e+01,4.843800e+01,5.459000e+01,6.396500e+01,-2.238280e+02,8.398000e+00,-4.853500e+01,2.930000e+00,-2.353500e+01,8.144500e+01,2.129880e+02,7.334000e+01
1.474600e+01,-4.835940e+02,6.250000e+01,8.691000e+00,1.328100e+01,-1.474600e+01,8.837900e+01,8.818400e+01,5.566400e+01,6.875000e+01,8.476600e+01,-2.252930e+02,4.492000e+00,-3.252000e+01,1.972700e+01,-1.210900e+01,9.404300e+01,2.302730e+02,8.935500e+01
2.285200e+01,-4.642580e+02,6.914100e+01,2.412100e+01,1.357400e+01,-1.630900e+01,9.580100e+01,1.052730e+02,6.142600e+01,8.447300e+01,9.130900e+01,-1.996090e+02,-2.148000e+00,-6.445000e+00,2.822300e+01,1.123000e+01,9.921900e+01,2.380860e+02,1.025390e+02
3.681600e+01,-4.413090e+02,8.603500e+01,4.726600e+01,1.992200e+01,-2.353500e+01,1.026370e+02,1.231450e+02,6.220700e+01,1.008790e+02,1.076170e+02,-1.780270e+02,-9.668000e+00,1.552700e+01,3.984400e+01,3.261700e+01,1.128910e+02,2.535160e+02,1.166020e+02
2.412100e+01,-4.629880e+02,7.148400e+01,2.841800e+01,5.762000e+00,-1.005900e+01,8.281200e+01,1.032230e+02,4.550800e+01,8.027300e+01,9.150400e+01,-1.971680e+02,-1.093700e+01,-6.152000e+00,2.089800e+01,7.715000e+00,9.804700e+01,2.357420e+02,9.414100e+01
1.465000e+00,-4.961910e+02,4.746100e+01,6.641000e+00,-1.230500e+01,8.984000e+00,5.693400e+01,7.998000e+01,3.203100e+01,5.849600e+01,6.259800e+01,-2.378910e+02,-1.103500e+01,-5.039100e+01,-7.324000e+00,-1.855500e+01,7.939500e+01,2.116210e+02,6.904300e+01
-1.513700e+01,-5.202150e+02,2.929700e+01,-3.164100e+01,-1.992200e+01,1.826200e+01,4.892600e+01,6.709000e+01,3.623000e+01,4.892600e+01,4.169900e+01,-2.344730e+02,-4.883000e+00,-6.660200e+01,-2.119100e+01,-3.173800e+01,6.523400e+01,1.956050e+02,5.722700e+01
-1.113300e+01,-5.262700e+02,3.066400e+01,-3.906200e+01,-1.162100e+01,1.015600e+01,5.371100e+01,4.785200e+01,4.218800e+01,3.701200e+01,4.960900e+01,-2.323240e+02,1.377000e+01,-4.384800e+01,-2.021500e+01,-4.394500e+01,6.826200e+01,1.934570e+02,4.765600e+01
-2.949200e+01,-5.522460e+02,1.269500e+01,-5.390600e+01,-2.041000e+01,1.601600e+01,3.857400e+01,2.314500e+01,3.164100e+01,1.425800e+01,3.642600e+01,-2.639650e+02,1.953100e+01,-7.128900e+01,-4.111300e+01,-6.591800e+01,5.429700e+01,1.761720e+02,2.627000e+01
-2.343800e+01,-5.355470e+02,2.119100e+01,-3.203100e+01,-1.318400e+01,5.762000e+00,4.443400e+01,3.818400e+01,3.398400e+01,2.773400e+01,4.316400e+01,-2.431640e+02,1.171900e+01,-5.957000e+01,-3.203100e+01,-4.619100e+01,6.523400e+01,1.885740e+02,4.111300e+01
2.930000e-01,-5.074220e+02,4.804700e+01,-1.357400e+01,3.418000e+00,-7.031000e+00,6.152300e+01,6.357400e+01,3.925800e+01,5.097700e+01,6.396500e+01,-2.134770e+02,4.883000e+00,-3.007800e+01,-6.836000e+00,-1.972700e+01,8.496100e+01,2.134770e+02,6.416000e+01
2.431600e+01,-4.797850e+02,6.894500e+01,5.078000e+00,1.377000e+01,-1.533200e+01,7.714800e+01,8.203100e+01,4.580100e+01,6.709000e+01,8.935500e+01,-2.045900e+02,2.539000e+00,-1.933600e+01,9.180000e+00,-2.344000e+00,1.009770e+02,2.331050e+02,8.144500e+01
2.783200e+01,-4.635740e+02,7.509800e+01,2.470700e+01,1.162100e+01,-1.298800e+01,8.183600e+01,9.394500e+01,4.726600e+01,7.666000e+01,9.277300e+01,-1.927730e+02,-8.398000e+00,-6.348000e+00,1.386700e+01,9.668000e+00,1.058590e+02,2.396480e+02,9.140600e+01
3.935500e+01,-4.367190e+02,8.779300e+01,5.166000e+01,1.884800e+01,-2.099600e+01,9.863300e+01,1.150390e+02,6.005900e+01,9.599600e+01,1.060550e+02,-1.769530e+02,-1.513700e+01,1.503900e+01,3.623000e+01,2.988300e+01,1.198240e+02,2.558590e+02,1.108400e+02
3.037100e+01,-4.503910e+02,7.197300e+01,3.906200e+01,4.883000e+00,-8.887000e+00,8.007800e+01,9.492200e+01,4.462900e+01,7.519500e+01,8.886700e+01,-1.821290e+02,-1.777300e+01,-3.320000e+00,1.435500e+01,3.516000e+00,1.072270e+02,2.396480e+02,8.886700e+01
1.318400e+01,-4.781250e+02,5.097700e+01,1.210900e+01,-1.074200e+01,7.617000e+00,5.771500e+01,6.953100e+01,3.144500e+01,5.127000e+01,7.070300e+01,-1.940430e+02,-2.363300e+01,-1.904300e+01,-1.474600e+01,-2.753900e+01,8.916000e+01,2.164060e+02,6.357400e+01
-4.785000e+00,-5.038090e+02,3.144500e+01,-8.008000e+00,-2.011700e+01,2.031300e+01,4.472700e+01,5.341800e+01,2.724600e+01,3.857400e+01,4.677700e+01,-2.264650e+02,-1.699200e+01,-4.150400e+01,-2.998000e+01,-3.339800e+01,7.460900e+01,1.985350e+02,4.873000e+01
-9.082000e+00,-5.192380e+02,2.675800e+01,-2.216800e+01,-1.757800e+01,1.738300e+01,4.384800e+01,4.082000e+01,2.929700e+01,2.793000e+01,3.984400e+01,-2.395510e+02,-7.910000e+00,-6.279300e+01,-3.212900e+01,-4.677700e+01,7.158200e+01,1.927730e+02,4.013700e+01
-2.548800e+01,-5.456050e+02,9.961000e+00,-4.668000e+01,-2.578100e+01,2.207000e+01,3.242200e+01,1.640600e+01,2.382800e+01,5.176000e+00,2.480500e+01,-2.541020e+02,-3.711000e+00,-9.384800e+01,-4.970700e+01,-7.968800e+01,5.625000e+01,1.758790e+02,2.060500e+01
-2.011700e+01,-5.306640e+02,1.689500e+01,-2.236300e+01,-2.080100e+01,1.474600e+01,4.052700e+01,3.017600e+01,2.959000e+01,1.845700e+01,2.871100e+01,-2.554690e+02,-1.552700e+01,-7.343700e+01,-4.824200e+01,-6.015600e+01,6.699200e+01,1.872070e+02,3.662100e+01
2.930000e+00,-5.003910e+02,4.326200e+01,-1.142600e+01,-2.539000e+00,-2.441000e+00,6.064500e+01,6.025400e+01,3.877000e+01,4.355500e+01,5.507800e+01,-2.197270e+02,-6.934000e+00,-3.515600e+01,-2.334000e+01,-2.568400e+01,8.535200e+01,2.118160e+02,6.152300e+01
2.363300e+01,-4.769530e+02,6.113300e+01,7.227000e+00,8.008000e+00,-8.496000e+00,7.314500e+01,8.349600e+01,4.111300e+01,6.074200e+01,8.085900e+01,-2.038090e+02,-1.562000e+00,-2.832000e+01,-2.051000e+00,-5.273000e+00,1.002930e+02,2.309570e+02,7.871100e+01
2.597700e+01,-4.654300e+02,6.591800e+01,2.255900e+01,4.980000e+00,-5.859000e+00,7.529300e+01,9.960900e+01,4.052700e+01,7.343700e+01,8.037100e+01,-1.881840e+02,-1.601600e+01,-1.015600e+01,3.910000e-01,9.863000e+00,1.032230e+02,2.371090e+02,8.925800e+01
4.306600e+01,-4.367190e+02,8.681600e+01,5.263700e+01,1.572300e+01,-1.777300e+01,9.423800e+01,1.234370e+02,5.468800e+01,9.843800e+01,9.648400e+01,-1.567380e+02,-2.519500e+01,2.207000e+01,2.216800e+01,3.593800e+01,1.210940e+02,2.570310e+02,1.125000e+02
2.822300e+01,-4.582030e+02,6.972700e+01,3.515600e+01,1.074000e+00,-5.566000e+00,7.968800e+01,1.055660e+02,4.277300e+01,8.007800e+01,7.919900e+01,-1.891600e+02,-2.783200e+01,-3.906000e+00,3.906000e+00,1.162100e+01,1.052730e+02,2.395510e+02,9.277300e+01
7.324000e+00,-4.892580e+02,4.716800e+01,5.176000e+00,-1.386700e+01,9.668000e+00,6.162100e+01,8.554700e+01,3.496100e+01,6.113300e+01,5.830100e+01,-2.112300e+02,-2.314500e+01,-2.216800e+01,-1.835900e+01,-9.277000e+00,8.603500e+01,2.166020e+02,7.187500e+01
-1.103500e+01,-5.137700e+02,2.832000e+01,-1.611300e+01,-2.285200e+01,2.109400e+01,4.794900e+01,6.865200e+01,3.046900e+01,4.697300e+01,4.043000e+01,-2.223630e+02,-1.816400e+01,-3.867200e+01,-3.554700e+01,-2.529300e+01,7.246100e+01,1.998050e+02,5.712900e+01
-1.386700e+01,-5.289060e+02,2.402300e+01,-2.929700e+01,-1.875000e+01,1.923800e+01,4.658200e+01,5.478500e+01,3.037100e+01,3.310500e+01,3.867200e+01,-2.406250e+02,-7.520000e+00,-5.722700e+01,-3.964800e+01,-4.130900e+01,6.962900e+01,1.952150e+02,4.794900e+01
-3.134800e+01,-5.588870e+02,6.152000e+00,-5.800800e+01,-2.675800e+01,25,3.339800e+01,3.105500e+01,2.255900e+01,1.142600e+01,2.373000e+01,-2.707030e+02,-4.880000e-01,-8.642600e+01,-5.683600e+01,-6.757800e+01,5.234400e+01,1.770510e+02,2.871100e+01
-2.373000e+01,-5.449220e+02,1.660200e+01,-4.394500e+01,-1.875000e+01,1.357400e+01,4.150400e+01,4.296900e+01,2.714800e+01,2.568400e+01,3.056600e+01,-2.564450e+02,-1.220700e+01,-7.539100e+01,-4.902300e+01,-5.166000e+01,6.103500e+01,1.881840e+02,4.316400e+01
-1.367000e+00,-5.126950e+02,4.228500e+01,-1.582000e+01,-1.855000e+00,-2.637000e+00,6.142600e+01,6.611300e+01,3.701200e+01,4.882800e+01,5.283200e+01,-2.298830e+02,-1.777300e+01,-5.048800e+01,-2.431600e+01,-2.890600e+01,8.027300e+01,2.119140e+02,6.826200e+01
1.806600e+01,-4.860350e+02,6.406300e+01,4.199000e+00,1.152300e+01,-1.298800e+01,8.164100e+01,8.671900e+01,4.814500e+01,6.884800e+01,7.402300e+01,-2.128910e+02,-9.180000e+00,-3.300800e+01,4.880000e-01,-1.191400e+01,9.531200e+01,2.326170e+02,8.916000e+01
2.119100e+01,-4.723630e+02,6.796900e+01,1.933600e+01,8.887000e+00,-9.570000e+00,8.691400e+01,1.023440e+02,5.039100e+01,8.056600e+01,7.568400e+01,-1.960940e+02,-1.396500e+01,-1.904300e+01,1.064500e+01,2.539000e+00,9.824200e+01,2.390630e+02,9.882800e+01
3.584000e+01,-4.463870e+02,8.330100e+01,5.009800e+01,1.543000e+01,-1.650400e+01,9.921900e+01,1.218750e+02,5.703100e+01,9.668000e+01,9.130900e+01,-1.878910e+02,-2.578100e+01,-2.344000e+00,2.666000e+01,2.294900e+01,1.134770e+02,2.558590e+02,1.165040e+02
2.636700e+01,-4.612300e+02,7.168000e+01,3.574200e+01,4.785000e+00,-7.715000e+00,8.994100e+01,1.075200e+02,5.185500e+01,8.378900e+01,8.408200e+01,-2.104490e+02,-2.460900e+01,-1.191400e+01,1.455100e+01,4.590000e+00,1.016600e+02,2.419920e+02,1.010740e+02
8.105000e+00,-4.908200e+02,5.195300e+01,3.125000e+00,-8.594000e+00,6.738000e+00,7.080100e+01,8.759800e+01,4.228500e+01,6.621100e+01,6.611300e+01,-2.113280e+02,-1.543000e+01,-2.724600e+01,-5.859000e+00,-1.416000e+01,8.359400e+01,2.200200e+02,7.939500e+01
-1.269500e+01,-5.178710e+02,3.056600e+01,-2.031300e+01,-2.011700e+01,1.943400e+01,5.283200e+01,7.011700e+01,3.554700e+01,5.146500e+01,4.736300e+01,-2.266600e+02,-9.473000e+00,-4.384800e+01,-2.343800e+01,-2.871100e+01,6.748000e+01,2.007810e+02,6.230500e+01
-1.767600e+01,-5.333980e+02,2.431600e+01,-3.300800e+01,-1.835900e+01,1.630900e+01,4.960900e+01,5.410200e+01,3.505900e+01,3.730500e+01,4.287100e+01,-2.530270e+02,-2.441000e+00,-6.298800e+01,-2.734400e+01,-4.638700e+01,6.357400e+01,1.938480e+02,5.097700e+01
-3.134800e+01,-5.615230e+02,9.570000e+00,-6.025400e+01,-2.480500e+01,2.207000e+01,3.535200e+01,3.056600e+01,2.509800e+01,1.464800e+01,3.242200e+01,-2.799800e+02,8.496000e+00,-9.199200e+01,-4.736300e+01,-7.109400e+01,4.941400e+01,1.769530e+02,2.998000e+01
-2.539100e+01,-5.482420e+02,1.806600e+01,-4.414100e+01,-1.748000e+01,1.113300e+01,4.433600e+01,4.082000e+01,3.281200e+01,2.617200e+01,4.013700e+01,-2.671880e+02,6.738000e+00,-7.841800e+01,-4.111300e+01,-5.644500e+01,5.859400e+01,1.870120e+02,4.296900e+01
-4.199000e+00,-5.149410e+02,4.199200e+01,-1.289100e+01,-9.770000e-01,-3.516000e+00,6.699200e+01,6.728500e+01,4.902300e+01,5.029300e+01,5.966800e+01,-2.278320e+02,-1.465000e+00,-4.638700e+01,-1.533200e+01,-3.085900e+01,7.910200e+01,2.117190e+02,6.894500e+01
1.464800e+01,-4.927730e+02,6.494100e+01,-2.734000e+00,1.259800e+01,-1.337900e+01,8.701200e+01,8.828100e+01,6.015600e+01,6.601600e+01,8.349600e+01,-2.113280e+02,-3.906000e+00,-3.877000e+01,9.473000e+00,-1.406200e+01,9.257800e+01,2.322270e+02,8.828100e+01
2.031300e+01,-4.785160e+02,7.294900e+01,1.181600e+01,1.074200e+01,-1.142600e+01,8.730500e+01,9.960900e+01,5.312500e+01,7.470700e+01,8.427700e+01,-1.983400e+02,-1.015600e+01,-2.080100e+01,1.777300e+01,1.758000e+00,9.746100e+01,2.385740e+02,9.482400e+01
4.306600e+01,-4.413090e+02,9.121100e+01,4.892600e+01,1.972700e+01,-2.128900e+01,9.785200e+01,1.261720e+02,5.634800e+01,1.031250e+02,1.063480e+02,-1.597660e+02,-1.513700e+01,1.982400e+01,3.613300e+01,3.554700e+01,1.185550e+02,2.579100e+02,1.161130e+02
3.193400e+01,-4.570310e+02,7.851600e+01,3.349600e+01,7.422000e+00,-1.337900e+01,8.388700e+01,1.119140e+02,4.726600e+01,9.199200e+01,9.355500e+01,-1.917970e+02,-1.845700e+01,-9.277000e+00,2.334000e+01,1.503900e+01,1.041990e+02,2.419920e+02,9.892600e+01
9.668000e+00,-4.854490e+02,5.185500e+01,1.591800e+01,-1.074200e+01,4.785000e+00,6.523400e+01,8.300800e+01,4.033200e+01,6.533200e+01,7.158200e+01,-2.265620e+02,-1.845700e+01,-4.492200e+01,-4.880000e-01,-1.777300e+01,8.447300e+01,2.166020e+02,7.285200e+01
-9.863000e+00,-5.130860e+02,3.369100e+01,-7.129000e+00,-2.285200e+01,2.002000e+01,4.794900e+01,5.947300e+01,2.949200e+01,3.671900e+01,4.433600e+01,-2.441410e+02,-1.972700e+01,-6.718800e+01,-2.431600e+01,-4.003900e+01,7.060500e+01,1.978520e+02,5.195300e+01
-1.220700e+01,-5.290040e+02,3.339800e+01,-3.339800e+01,-1.757800e+01,1.601600e+01,4.873000e+01,5.517600e+01,3.603500e+01,3.261700e+01,4.189500e+01,-2.429690e+02,-5.371000e+00,-7.539100e+01,-2.880900e+01,-4.238300e+01,6.796900e+01,1.943360e+02,4.824200e+01
-2.441400e+01,-5.537110e+02,1.337900e+01,-6.005900e+01,-2.363300e+01,2.050800e+01,3.984400e+01,3.476600e+01,3.252000e+01,1.748000e+01,3.808600e+01,-2.634770e+02,1.396500e+01,-6.972700e+01,-4.121100e+01,-6.025400e+01,5.498000e+01,1.786130e+02,3.134800e+01
-1.377000e+01,-5.359370e+02,2.334000e+01,-3.339800e+01,-1.601600e+01,1.142600e+01,4.648400e+01,4.111300e+01,3.720700e+01,2.519500e+01,4.433600e+01,-2.492190e+02,1.689500e+01,-4.912100e+01,-3.857400e+01,-4.882800e+01,6.728500e+01,1.899410e+02,4.228500e+01
3.418000e+00,-5.086910e+02,4.589800e+01,-4.297000e+00,-9.800000e-02,-3.809000e+00,6.543000e+01,6.044900e+01,4.287100e+01,4.121100e+01,6.748000e+01,-2.330080e+02,4.395000e+00,-5.117200e+01,-1.162100e+01,-2.900400e+01,8.496100e+01,2.125000e+02,6.386700e+01
1.259800e+01,-4.917970e+02,5.888700e+01,1.962900e+01,7.715000e+00,-8.105000e+00,7.949200e+01,7.773400e+01,4.921900e+01,5.800800e+01,7.910200e+01,-2.466800e+02,-9.277000e+00,-4.072300e+01,5.957000e+00,-1.835900e+01,9.638700e+01,2.296880e+02,8.212900e+01
2.587900e+01,-4.690430e+02,7.412100e+01,1.962900e+01,1.298800e+01,-1.396500e+01,8.886700e+01,9.921900e+01,5.625000e+01,8.095700e+01,9.101600e+01,-1.862300e+02,-8.105000e+00,9.961000e+00,1.943400e+01,4.199000e+00,1.031250e+02,2.393550e+02,9.619100e+01
4.492200e+01,-4.382810e+02,9.502000e+01,4.853500e+01,2.382800e+01,-2.548800e+01,1.096680e+02,1.233400e+02,7.031200e+01,1.008790e+02,1.094730e+02,-1.436520e+02,-1.113300e+01,2.949200e+01,4.902300e+01,3.017600e+01,1.209960e+02,2.596680e+02,1.193360e+02
3.037100e+01,-4.568360e+02,7.959000e+01,4.472700e+01,8.496000e+00,-1.201200e+01,9.228500e+01,1.039060e+02,5.527300e+01,7.646500e+01,9.033200e+01,-2.025390e+02,-1.816400e+01,-5.566000e+00,2.509800e+01,5.566000e+00,1.087890e+02,2.446290e+02,9.882800e+01
1.142600e+01,-4.851560e+02,5.390600e+01,8.301000e+00,-8.301000e+00,5.176000e+00,7.197300e+01,8.193400e+01,4.511700e+01,5.498000e+01,6.250000e+01,-2.146480e+02,-1.669900e+01,-9.668000e+00,-3.906000e+00,-1.738300e+01,8.818400e+01,2.204100e+02,7.519500e+01
3.910000e-01,-5.049800e+02,3.798800e+01,-1.005900e+01,-1.806600e+01,1.767600e+01,5.185500e+01,6.748000e+01,3.271500e+01,4.482400e+01,4.677700e+01,-2.009770e+02,-1.054700e+01,-2.578100e+01,-1.904300e+01,-2.519500e+01,7.773400e+01,2.034180e+02,5.869100e+01
-3.320000e+00,-5.166020e+02,3.642600e+01,-2.089800e+01,-1.533200e+01,1.386700e+01,4.472700e+01,5.195300e+01,2.822300e+01,3.339800e+01,4.785200e+01,-2.127930e+02,-6.840000e-01,-5.341800e+01,-2.627000e+01,-4.267600e+01,7.773400e+01,1.989260e+02,4.843800e+01
-2.138700e+01,-5.480470e+02,1.816400e+01,-5.136700e+01,-2.334000e+01,2.011700e+01,3.164100e+01,2.705100e+01,1.777300e+01,8.691000e+00,3.427700e+01,-2.547850e+02,1.064500e+01,-8.242200e+01,-3.935500e+01,-7.119100e+01,6.132800e+01,1.814450e+02,2.627000e+01
-1.728500e+01,-5.403320e+02,2.421900e+01,-4.189500e+01,-1.738300e+01,1.132800e+01,3.789100e+01,3.632800e+01,2.099600e+01,1.845700e+01,4.052700e+01,-2.608400e+02,6.738000e+00,-7.373000e+01,-3.222700e+01,-5.039100e+01,6.777300e+01,1.902340e+02,3.740200e+01
5.078000e+00,-5.089840e+02,4.658200e+01,-1.210900e+01,-2.930000e-01,-4.883000e+00,6.113300e+01,5.839800e+01,3.564500e+01,4.052700e+01,6.572300e+01,-2.368160e+02,1.950000e-01,-5.009800e+01,-8.496000e+00,-2.793000e+01,8.847700e+01,2.153320e+02,6.318400e+01
2.558600e+01,-4.817380e+02,6.748000e+01,1.289100e+01,1.308600e+01,-1.533200e+01,8.261700e+01,7.666000e+01,4.980500e+01,5.791000e+01,8.584000e+01,-2.097660e+02,-1.953000e+00,-2.587900e+01,1.054700e+01,-2.089800e+01,1.047850e+02,2.364260e+02,8.330100e+01
2.793000e+01,-4.698240e+02,7.119100e+01,2.529300e+01,1.142600e+01,-1.289100e+01,8.808600e+01,9.209000e+01,5.439500e+01,7.060500e+01,8.535200e+01,-1.949220e+02,-1.298800e+01,-1.562500e+01,8.691000e+00,1.758000e+00,1.064450e+02,2.418950e+02,9.414100e+01
4.785200e+01,-4.380860e+02,8.886700e+01,5.830100e+01,1.718700e+01,-1.943400e+01,9.697300e+01,1.165040e+02,5.859400e+01,9.091800e+01,9.736300e+01,-1.692380e+02,-2.949200e+01,8.203000e+00,1.279300e+01,3.281200e+01,1.245120e+02,2.599610e+02,1.136720e+02
4.248000e+01,-4.465820e+02,7.949200e+01,5.546900e+01,4.785000e+00,-8.887000e+00,8.076200e+01,1.052730e+02,4.257800e+01,7.617200e+01,8.837900e+01,-1.897460e+02,-3.183600e+01,-1.210900e+01,2.148000e+00,1.298800e+01,1.178710e+02,2.487300e+02,9.668000e+01
1.738300e+01,-4.815430e+02,5.390600e+01,2.539100e+01,-1.386700e+01,9.180000e+00,5.918000e+01,8.310500e+01,2.861300e+01,5.302700e+01,6.298800e+01,-2.038090e+02,-2.587900e+01,-4.746100e+01,-1.611300e+01,-1.884800e+01,9.589800e+01,2.232420e+02,7.109400e+01
2.930000e+00,-5.041020e+02,3.857400e+01,6.250000e+00,-2.070300e+01,1.845700e+01,4.863300e+01,6.367200e+01,2.714800e+01,4.023400e+01,4.980500e+01,-2.223630e+02,-1.357400e+01,-3.496100e+01,-2.265600e+01,-2.861300e+01,8.486300e+01,2.067380e+02,5.566400e+01
6.543000e+00,-5.140630e+02,3.642600e+01,-1.513700e+01,-1.621100e+01,1.464800e+01,4.726600e+01,5.556600e+01,3.173800e+01,3.593800e+01,4.951200e+01,-2.245120e+02,-2.246000e+00,-3.486300e+01,-2.978500e+01,-3.232400e+01,8.369100e+01,2.024410e+02,5.009800e+01
-7.715000e+00,-5.422850e+02,1.914100e+01,-3.945300e+01,-2.773400e+01,2.255900e+01,2.832000e+01,3.154300e+01,1.855500e+01,1.035200e+01,2.695300e+01,-2.692380e+02,-1.465000e+00,-8.291000e+01,-5.634800e+01,-6.630900e+01,6.621100e+01,1.823240e+02,2.685500e+01
-6.641000e+00,-5.389650e+02,2.314500e+01,-3.369100e+01,-2.226600e+01,1.621100e+01,3.339800e+01,3.877000e+01,2.363300e+01,1.582000e+01,3.437500e+01,-2.586910e+02,-9.770000e-01,-7.529300e+01,-5.293000e+01,-5.507800e+01,6.923800e+01,1.889650e+02,3.623000e+01
1.601600e+01,-5.032230e+02,4.843800e+01,-5.860000e-01,-2.246000e+00,-2.051000e+00,5.888700e+01,6.650400e+01,4.189500e+01,4.433600e+01,5.498000e+01,-2.288090e+02,-4.492000e+00,-2.822300e+01,-2.412100e+01,-2.148400e+01,9.228500e+01,2.162110e+02,6.513700e+01
3.837900e+01,-4.674800e+02,6.699200e+01,3.359400e+01,1.084000e+01,-1.279300e+01,7.744100e+01,8.750000e+01,5.195300e+01,6.425800e+01,8.144500e+01,-1.932620e+02,-6.543000e+00,-8.887000e+00,2.246000e+00,-5.957000e+00,1.123050e+02,2.382810e+02,8.603500e+01
3.955100e+01,-4.605470e+02,7.187500e+01,3.593800e+01,9.668000e+00,-1.162100e+01,8.388700e+01,9.990200e+01,5.527300e+01,7.363300e+01,8.330100e+01,-1.763670e+02,-1.171900e+01,-1.270000e+00,1.220700e+01,3.711000e+00,1.125000e+02,2.436520e+02,9.619100e+01
5.087900e+01,-4.405270e+02,8.847700e+01,5.918000e+01,1.562500e+01,-1.728500e+01,9.511700e+01,1.225590e+02,5.595700e+01,9.179700e+01,9.511700e+01,-1.688480e+02,-3.203100e+01,1.640600e+01,2.363300e+01,2.929700e+01,1.246090e+02,2.599610e+02,1.147460e+02
4.130900e+01,-4.523440e+02,7.959000e+01,4.257800e+01,6.738000e+00,-1.064500e+01,8.837900e+01,1.133790e+02,5.322300e+01,8.418000e+01,8.339800e+01,-1.749020e+02,-4.003900e+01,8.691000e+00,1.377000e+01,1.503900e+01,1.119140e+02,2.485350e+02,1.039060e+02
2.646500e+01,-4.747070e+02,6.250000e+01,2.216800e+01,-5.957000e+00,3.320000e+00,6.826200e+01,9.199200e+01,4.130900e+01,6.621100e+01,6.591800e+01,-1.897460e+02,-2.880900e+01,-1.093700e+01,-7.031000e+00,-4.785000e+00,9.765600e+01,2.274410e+02,8.037100e+01
1.953000e+00,-5.048830e+02,3.886700e+01,5.176000e+00,-1.826200e+01,1.718700e+01,4.990200e+01,6.884800e+01,3.125000e+01,4.414100e+01,4.824200e+01,-2.165040e+02,-2.119100e+01,-4.121100e+01,-2.959000e+01,-2.734400e+01,8.017600e+01,2.058590e+02,5.986300e+01
-5.664000e+00,-5.254880e+02,2.783200e+01,-1.845700e+01,-1.826200e+01,1.689500e+01,4.697300e+01,5.722700e+01,3.193400e+01,3.447300e+01,4.189500e+01,-2.379880e+02,-5.078000e+00,-6.396500e+01,-3.066400e+01,-4.101600e+01,7.314500e+01,1.989260e+02,5.214800e+01
-1.962900e+01,-5.533200e+02,1.171900e+01,-4.619100e+01,-2.656300e+01,2.353500e+01,3.095700e+01,3.252000e+01,1.992200e+01,1.123000e+01,2.685500e+01,-2.676760e+02,3.906000e+00,-9.502000e+01,-4.472700e+01,-7.412100e+01,5.810500e+01,1.812500e+02,2.939500e+01
-1.230500e+01,-5.417970e+02,2.060500e+01,-3.310500e+01,-1.767600e+01,1.191400e+01,4.394500e+01,4.082000e+01,3.232400e+01,2.168000e+01,3.750000e+01,-2.616210e+02,9.082000e+00,-6.494100e+01,-2.929700e+01,-5.908200e+01,6.591800e+01,1.892580e+02,4.189500e+01
8.984000e+00,-5.097660e+02,4.570300e+01,-5.566000e+00,-2.930000e-01,-3.516000e+00,6.562500e+01,6.796900e+01,4.628900e+01,4.863300e+01,6.474600e+01,-2.300780e+02,5.469000e+00,-3.515600e+01,-1.269500e+01,-2.773400e+01,8.691400e+01,2.145510e+02,6.914100e+01
2.900400e+01,-4.834960e+02,6.699200e+01,1.494100e+01,1.123000e+01,-1.337900e+01,7.744100e+01,8.593700e+01,4.755900e+01,6.230500e+01,8.613300e+01,-2.051760e+02,-7.715000e+00,-2.353500e+01,-9.800000e-02,-8.008000e+00,1.026370e+02,2.354490e+02,8.457000e+01
3.134800e+01,-4.714840e+02,7.226600e+01,3.017600e+01,1.005900e+01,-1.220700e+01,8.095700e+01,9.697300e+01,4.843800e+01,7.275400e+01,8.750000e+01,-2.089840e+02,-3.085900e+01,-1.270000e+00,3.613000e+00,5.664000e+00,1.041990e+02,2.411130e+02,9.404300e+01
4.765600e+01,-4.435550e+02,9.296900e+01,5.185500e+01,2.148400e+01,-2.353500e+01,1.012700e+02,1.226560e+02,6.416000e+01,9.873000e+01,1.031250e+02,-1.607420e+02,-2.988300e+01,2.646500e+01,2.802700e+01,3.183600e+01,1.187500e+02,2.597660e+02,1.183590e+02
4.013700e+01,-4.559570e+02,8.085900e+01,4.101600e+01,1.044900e+01,-1.416000e+01,8.955100e+01,1.160160e+02,5.410200e+01,8.974600e+01,9.218800e+01,-1.800780e+02,-2.080100e+01,2.637000e+00,2.832000e+01,1.601600e+01,1.091800e+02,2.498050e+02,1.058590e+02
2.168000e+01,-4.833980e+02,5.830100e+01,1.738300e+01,-7.227000e+00,3.320000e+00,6.650400e+01,9.296900e+01,4.043000e+01,6.709000e+01,6.855500e+01,-2.151370e+02,-1.533200e+01,-3.173800e+01,-9.800000e-02,-7.520000e+00,9.238300e+01,2.263670e+02,8.076200e+01
4.102000e+00,-5.064450e+02,4.130900e+01,-9.375000e+00,-1.796900e+01,1.660200e+01,5.097700e+01,7.275400e+01,3.300800e+01,4.834000e+01,5.127000e+01,-2.074220e+02,-8.691000e+00,-3.896500e+01,-1.933600e+01,-2.959000e+01,7.734400e+01,2.064450e+02,6.201200e+01
-3.809000e+00,-5.241210e+02,3.261700e+01,-2.363300e+01,-1.611300e+01,1.582000e+01,4.970700e+01,5.966800e+01,3.652300e+01,3.857400e+01,4.716800e+01,-2.297850e+02,1.950000e-01,-4.941400e+01,-2.480500e+01,-4.414100e+01,7.275400e+01,2.004880e+02,5.439500e+01
-1.767600e+01,-5.520510e+02,1.591800e+01,-4.726600e+01,-2.324200e+01,2.080100e+01,3.554700e+01,3.730500e+01,2.783200e+01,2.021500e+01,3.291000e+01,-2.617190e+02,6.250000e+00,-8.085900e+01,-5.009800e+01,-6.513700e+01,5.986300e+01,1.843750e+02,3.427700e+01
-1.845700e+01,-5.493160e+02,1.777300e+01,-4.150400e+01,-2.119100e+01,1.601600e+01,3.300800e+01,4.111300e+01,2.216800e+01,2.334000e+01,3.242200e+01,-2.673830e+02,2.832000e+00,-1.053710e+02,-4.736300e+01,-6.318400e+01,6.269500e+01,1.875000e+02,3.730500e+01
3.613000e+00,-5.191410e+02,4.375000e+01,-2.099600e+01,-3.125000e+00,-1.660000e+00,5.498000e+01,6.601600e+01,3.330100e+01,4.619100e+01,5.800800e+01,-2.282230e+02,2.246000e+00,-5.595700e+01,-1.718700e+01,-3.173800e+01,8.046900e+01,2.115230e+02,6.259800e+01
2.822300e+01,-4.872070e+02,6.894500e+01,7.422000e+00,1.425800e+01,-1.679700e+01,7.880900e+01,8.466800e+01,4.687500e+01,6.582000e+01,8.164100e+01,-1.988280e+02,5.371000e+00,-8.789000e+00,9.570000e+00,-3.320000e+00,9.990200e+01,2.347660e+02,8.447300e+01
3.105500e+01,-4.746090e+02,7.285200e+01,2.060500e+01,1.328100e+01,-1.552700e+01,8.544900e+01,9.951200e+01,5.019500e+01,7.695300e+01,8.496100e+01,-1.881840e+02,-2.930000e-01,-2.539000e+00,1.972700e+01,9.570000e+00,1.017580e+02,2.408200e+02,9.443400e+01
4.521500e+01,-4.478520e+02,8.964800e+01,4.804700e+01,1.943400e+01,-2.119100e+01,1.005860e+02,1.223630e+02,6.142600e+01,9.853500e+01,1.023440e+02,-1.667970e+02,-1.748000e+01,1.748000e+01,3.593800e+01,3.183600e+01,1.166020e+02,2.580080e+02,1.159180e+02
4.453100e+01,-4.523440e+02,8.925800e+01,4.287100e+01,1.132800e+01,-1.552700e+01,8.916000e+01,1.110350e+02,5.117200e+01,8.662100e+01,9.345700e+01,-1.812500e+02,-2.002000e+01,-4.297000e+00,2.207000e+01,1.337900e+01,1.114260e+02,2.496090e+02,1.033200e+02
2.226600e+01,-4.847660e+02,6.132800e+01,1.992200e+01,-6.934000e+00,1.367000e+00,6.787100e+01,8.847700e+01,4.169900e+01,6.484400e+01,7.763700e+01,-2.214840e+02,-1.377000e+01,-3.535200e+01,-5.860000e-01,-1.064500e+01,9.130900e+01,2.250980e+02,7.978500e+01
-6.055000e+00,-5.161130e+02,2.871100e+01,9.863000e+00,-2.441400e+01,2.138700e+01,4.902300e+01,6.640600e+01,3.427700e+01,4.472700e+01,4.541000e+01,-2.701170e+02,-1.757800e+01,-6.269500e+01,-2.431600e+01,-3.701200e+01,7.451200e+01,2.029300e+02,5.996100e+01
-8.203000e+00,-5.304690e+02,3.017600e+01,-2.373000e+01,-1.709000e+01,1.679700e+01,4.970700e+01,5.712900e+01,3.447300e+01,3.857400e+01,4.296900e+01,-2.303710e+02,-8.398000e+00,-5.175800e+01,-2.412100e+01,-4.394500e+01,7.236300e+01,1.993160e+02,5.351600e+01
-2.168000e+01,-5.599610e+02,1.669900e+01,-6.318400e+01,-2.031300e+01,1.875000e+01,4.033200e+01,3.623000e+01,2.793000e+01,1.826200e+01,3.173800e+01,-2.584960e+02,1.270000e+00,-9.277300e+01,-3.281200e+01,-6.650400e+01,5.781300e+01,1.843750e+02,3.486300e+01
-1.318400e+01,-5.476560e+02,2.490200e+01,-4.550800e+01,-1.748000e+01,1.201200e+01,3.955100e+01,3.896500e+01,2.949200e+01,2.421900e+01,3.125000e+01,-2.620120e+02,4.297000e+00,-7.343700e+01,-3.935500e+01,-5.400400e+01,6.582000e+01,1.881840e+02,3.925800e+01
1.523400e+01,-5.033200e+02,4.912100e+01,4.785000e+00,-3.516000e+00,-1.270000e+00,6.025400e+01,6.386700e+01,4.287100e+01,4.814500e+01,5.654300e+01,-2.300780e+02,3.418000e+00,-3.945300e+01,-1.679700e+01,-2.724600e+01,9.082000e+01,2.127930e+02,6.494100e+01
3.681600e+01,-4.794920e+02,6.455100e+01,2.197300e+01,7.910000e+00,-9.668000e+00,7.695300e+01,8.447300e+01,5.019500e+01,6.406300e+01,7.959000e+01,-2.053710e+02,-2.539000e+00,-2.763700e+01,3.223000e+00,-1.152300e+01,1.044920e+02,2.333980e+02,8.378900e+01
3.886700e+01,-4.712890e+02,6.923800e+01,2.519500e+01,8.105000e+00,-9.766000e+00,8.222700e+01,9.755900e+01,5.117200e+01,7.324200e+01,8.486300e+01,-2.016600e+02,-1.259800e+01,-9.668000e+00,1.132800e+01,-1.562000e+00,1.058590e+02,2.398440e+02,9.228500e+01
5.439500e+01,-4.395510e+02,9.189500e+01,5.127000e+01,1.855500e+01,-2.080100e+01,9.794900e+01,1.217770e+02,6.435500e+01,9.804700e+01,1.004880e+02,-1.440430e+02,-2.089800e+01,2.216800e+01,3.066400e+01,3.085900e+01,1.228520e+02,2.590820e+02,1.161130e+02
4.560500e+01,-4.480470e+02,8.281200e+01,5.293000e+01,8.496000e+00,-1.298800e+01,8.701200e+01,1.110350e+02,5.380900e+01,8.681600e+01,8.925800e+01,-1.906250e+02,-3.183600e+01,6.934000e+00,1.923800e+01,1.406200e+01,1.155270e+02,2.514650e+02,1.048830e+02
3.017600e+01,-4.731450e+02,6.543000e+01,1.425800e+01,-3.320000e+00,-2.246000e+00,7.197300e+01,8.964800e+01,4.765600e+01,6.689500e+01,7.509800e+01,-1.874020e+02,-1.738300e+01,-1.172000e+00,3.516000e+00,-4.883000e+00,9.599600e+01,2.291020e+02,8.232400e+01
1.718700e+01,-4.927730e+02,4.169900e+01,-1.855000e+00,-1.777300e+01,1.416000e+01,5.341800e+01,7.373000e+01,4.033200e+01,5.253900e+01,5.400400e+01,-2.018550e+02,-1.298800e+01,-2.988300e+01,-2.080100e+01,-1.464800e+01,8.369100e+01,2.096680e+02,6.435500e+01
1.503900e+01,-5.053710e+02,3.418000e+01,-7.715000e+00,-1.884800e+01,1.777300e+01,4.628900e+01,6.103500e+01,3.554700e+01,4.316400e+01,4.296900e+01,-2.254880e+02,-8.594000e+00,-4.365200e+01,-2.763700e+01,-2.753900e+01,8.291000e+01,2.032230e+02,5.302700e+01
2.344000e+00,-5.317380e+02,2.021500e+01,-3.252000e+01,-2.392600e+01,2.158200e+01,3.310500e+01,3.544900e+01,2.646500e+01,1.923800e+01,3.066400e+01,-2.524410e+02,-1.950000e-01,-7.109400e+01,-4.316400e+01,-5.830100e+01,6.953100e+01,1.875980e+02,3.173800e+01
-2.441000e+00,-5.347660e+02,1.904300e+01,-3.252000e+01,-2.255900e+01,1.796900e+01,3.486300e+01,3.652300e+01,2.793000e+01,1.816400e+01,2.861300e+01,-2.361330e+02,-8.790000e-01,-6.611300e+01,-4.228500e+01,-5.244100e+01,6.962900e+01,1.883790e+02,3.398400e+01
1.572300e+01,-5.068360e+02,4.218800e+01,-4.492000e+00,-6.934000e+00,2.637000e+00,5.468800e+01,5.615200e+01,3.935500e+01,3.847700e+01,4.570300e+01,-2.218750e+02,-7.910000e+00,-5.830100e+01,-1.757800e+01,-3.242200e+01,8.877000e+01,2.108400e+02,5.761700e+01
4.257800e+01,-4.731450e+02,7.050800e+01,2.373000e+01,9.961000e+00,-1.132800e+01,7.334000e+01,7.919900e+01,4.775400e+01,5.878900e+01,7.236300e+01,-2.048830e+02,-1.035200e+01,-3.320300e+01,1.855000e+00,-1.142600e+01,1.094730e+02,2.350590e+02,7.861300e+01
4.941400e+01,-4.562500e+02,7.197300e+01,3.398400e+01,8.301000e+00,-8.789000e+00,7.841800e+01,9.414100e+01,4.785200e+01,6.992200e+01,8.212900e+01,-1.952150e+02,-1.718700e+01,-2.753900e+01,6.836000e+00,-9.375000e+00,1.125980e+02,2.421870e+02,8.808600e+01
6.386700e+01,-4.271480e+02,8.837900e+01,6.298800e+01,1.406200e+01,-1.572300e+01,9.003900e+01,1.139650e+02,5.380900e+01,9.238300e+01,9.365200e+01,-1.558590e+02,-2.627000e+01,3.457000e+01,2.158200e+01,2.861300e+01,1.270510e+02,2.586910e+02,1.081050e+02
5.986300e+01,-4.333010e+02,8.515600e+01,5.595700e+01,8.789000e+00,-1.259800e+01,8.623000e+01,1.136720e+02,4.951200e+01,8.896500e+01,8.964800e+01,-1.556640e+02,-3.007800e+01,3.505900e+01,2.070300e+01,3.017600e+01,1.209960e+02,2.536130e+02,1.017580e+02
3.769500e+01,-4.657230e+02,6.025400e+01,3.037100e+01,-8.105000e+00,3.711000e+00,6.777300e+01,9.003900e+01,3.964800e+01,6.455100e+01,6.562500e+01,-1.846680e+02,-2.685500e+01,-1.464800e+01,-5.371000e+00,-5.664000e+00,1.003910e+02,2.297850e+02,7.753900e+01
1.650400e+01,-4.938480e+02,3.818400e+01,8.789000e+00,-2.148400e+01,1.923800e+01,5.058600e+01,6.835900e+01,3.222700e+01,4.384800e+01,4.052700e+01,-1.969730e+02,-2.294900e+01,-3.730500e+01,-2.490200e+01,-3.330100e+01,8.300800e+01,2.083010e+02,5.781300e+01
6.836000e+00,-5.103520e+02,2.812500e+01,-1.660000e+00,-2.324200e+01,2.177700e+01,4.492200e+01,5.673800e+01,3.212900e+01,3.281200e+01,2.714800e+01,-2.326170e+02,-2.275400e+01,-5.468800e+01,-4.091800e+01,-4.394500e+01,7.812500e+01,1.992190e+02,4.931600e+01
-5.371000e+00,-5.355470e+02,1.484400e+01,-3.125000e+01,-2.558600e+01,2.314500e+01,3.857400e+01,3.837900e+01,2.861300e+01,1.503900e+01,2.021500e+01,-2.602540e+02,-8.984000e+00,-7.246100e+01,-5.371100e+01,-6.523400e+01,6.406300e+01,1.851560e+02,3.281200e+01
-1.259800e+01,-5.432620e+02,1.201200e+01,-4.687500e+01,-2.617200e+01,1.962900e+01,3.574200e+01,3.691400e+01,2.744100e+01,1.377000e+01,2.070300e+01,-2.530270e+02,-4.102000e+00,-8.281200e+01,-5.888700e+01,-6.875000e+01,5.791000e+01,1.822270e+02,3.330100e+01
6.445000e+00,-5.137700e+02,3.447300e+01,-1.640600e+01,-1.044900e+01,5.566000e+00,5.634800e+01,6.250000e+01,4.189500e+01,3.964800e+01,4.140600e+01,-2.296880e+02,-7.910000e+00,-5.293000e+01,-3.359400e+01,-3.554700e+01,7.841800e+01,2.074220e+02,6.123000e+01
3.457000e+01,-4.789060e+02,6.328100e+01,1.582000e+01,7.813000e+00,-1.103500e+01,8.222700e+01,8.085900e+01,5.644500e+01,6.084000e+01,6.640600e+01,-2.133790e+02,-1.699200e+01,-2.568400e+01,-3.910000e-01,-1.250000e+01,1.019530e+02,2.331050e+02,8.544900e+01
3.935500e+01,-4.666020e+02,7.021500e+01,2.822300e+01,8.398000e+00,-8.984000e+00,8.613300e+01,9.648400e+01,5.293000e+01,7.246100e+01,7.402300e+01,-1.943360e+02,-2.285200e+01,-1.445300e+01,1.064500e+01,-1.953000e+00,1.057620e+02,2.406250e+02,9.472700e+01
5.029300e+01,-4.418950e+02,8.320300e+01,5.195300e+01,1.347700e+01,-1.337900e+01,9.658200e+01,1.204100e+02,5.654300e+01,9.267600e+01,9.111300e+01,-1.526370e+02,-2.675800e+01,1.816400e+01,2.793000e+01,2.197300e+01,1.184570e+02,2.576170e+02,1.138670e+02
4.785200e+01,-4.447270e+02,8.076200e+01,5.068400e+01,7.324000e+00,-1.142600e+01,9.160200e+01,1.191410e+02,4.960900e+01,8.789100e+01,8.642600e+01,-1.653320e+02,-3.183600e+01,9.082000e+00,2.382800e+01,1.552700e+01,1.145510e+02,2.539060e+02,1.078120e+02
2.753900e+01,-4.733400e+02,5.429700e+01,2.578100e+01,-9.570000e+00,5.859000e+00,7.158200e+01,9.541000e+01,3.945300e+01,6.562500e+01,6.357400e+01,-2.003910e+02,-2.910200e+01,-2.109400e+01,-4.492000e+00,-8.691000e+00,9.433600e+01,2.300780e+02,8.349600e+01
6.836000e+00,-5.003910e+02,3.300800e+01,3.711000e+00,-2.324200e+01,2.187500e+01,5.195300e+01,7.363300e+01,3.115200e+01,4.873000e+01,3.613300e+01,-2.181640e+02,-2.880900e+01,-4.043000e+01,-2.783200e+01,-2.998000e+01,7.724600e+01,2.089840e+02,6.435500e+01
-4.492000e+00,-5.192380e+02,2.099600e+01,-7.422000e+00,-2.802700e+01,2.685500e+01,4.199200e+01,5.869100e+01,2.666000e+01,3.418000e+01,2.275400e+01,-2.359380e+02,-2.529300e+01,-7.734400e+01,-4.277300e+01,-5.029300e+01,7.011700e+01,1.979490e+02,5.156200e+01
-1.992200e+01,-5.495120e+02,4.199000e+00,-3.857400e+01,-3.466800e+01,3.330100e+01,3.066400e+01,3.759800e+01,1.835900e+01,1.279300e+01,1.347700e+01,-2.943360e+02,-1.562500e+01,-1.154300e+02,-5.703100e+01,-7.412100e+01,5.507800e+01,1.821290e+02,3.232400e+01
-1.611300e+01,-5.434570e+02,1.074200e+01,-4.052700e+01,-2.431600e+01,1.894500e+01,4.296900e+01,3.808600e+01,3.095700e+01,1.464800e+01,2.216800e+01,-2.553710e+02,-1.953000e+00,-7.148400e+01,-4.462900e+01,-6.318400e+01,5.781300e+01,1.855470e+02,3.818400e+01
1.270000e+00,-5.168950e+02,3.359400e+01,-1.757800e+01,-5.664000e+00,2.930000e-01,6.855500e+01,6.308600e+01,4.882800e+01,3.925800e+01,4.326200e+01,-2.201170e+02,-3.906000e+00,-3.691400e+01,-1.337900e+01,-3.203100e+01,7.529300e+01,2.095700e+02,6.650400e+01
2.334000e+01,-4.876950e+02,5.585900e+01,1.093700e+01,7.715000e+00,-1.035200e+01,8.593700e+01,8.457000e+01,5.712900e+01,5.820300e+01,6.396500e+01,-2.129880e+02,-1.005900e+01,-2.343800e+01,7.813000e+00,-1.445300e+01,9.306600e+01,2.320310e+02,8.769500e+01
3.398400e+01,-4.688480e+02,6.503900e+01,2.705100e+01,6.836000e+00,-7.324000e+00,8.320300e+01,9.912100e+01,4.970700e+01,7.148400e+01,7.021500e+01,-2.034180e+02,-2.099600e+01,-6.055000e+00,4.492000e+00,1.855000e+00,1.002930e+02,2.409180e+02,9.531200e+01
4.521500e+01,-4.451170e+02,7.919900e+01,5.214800e+01,1.064500e+01,-1.250000e+01,9.043000e+01,1.209960e+02,5.136700e+01,9.267600e+01,8.037100e+01,-1.663090e+02,-3.164100e+01,1.943400e+01,1.748000e+01,2.968800e+01,1.122070e+02,2.556640e+02,1.127930e+02
4.580100e+01,-4.453130e+02,7.802700e+01,4.765600e+01,5.762000e+00,-1.171900e+01,8.798800e+01,1.210940e+02,4.843800e+01,9.209000e+01,8.505900e+01,-1.585940e+02,-3.564500e+01,1.269500e+01,1.660200e+01,2.841800e+01,1.093750e+02,2.539060e+02,1.097660e+02
2.617200e+01,-4.732420e+02,5.498000e+01,2.480500e+01,-1.162100e+01,5.859000e+00,6.757800e+01,9.628900e+01,3.906200e+01,6.835900e+01,6.377000e+01,-1.946290e+02,-3.359400e+01,-2.382800e+01,-9.570000e+00,-1.074000e+00,8.974600e+01,2.296880e+02,8.447300e+01
4.297000e+00,-5.016600e+02,3.154300e+01,3.125000e+00,-2.431600e+01,2.168000e+01,5.361300e+01,7.539100e+01,3.779300e+01,4.951200e+01,3.691400e+01,-2.155270e+02,-2.978500e+01,-4.365200e+01,-3.144500e+01,-2.470700e+01,7.314500e+01,2.089840e+02,6.689500e+01
-4.980000e+00,-5.198240e+02,2.285200e+01,-1.435500e+01,-2.324200e+01,2.216800e+01,5.537100e+01,6.201200e+01,4.668000e+01,3.632800e+01,2.353500e+01,-2.255860e+02,-2.275400e+01,-5.947300e+01,-3.271500e+01,-4.423800e+01,6.709000e+01,2.012700e+02,5.888700e+01
-1.621100e+01,-5.458980e+02,1.025400e+01,-4.169900e+01,-2.851600e+01,2.587900e+01,4.150400e+01,4.375000e+01,3.466800e+01,1.757800e+01,1.210900e+01,-2.600590e+02,-1.377000e+01,-1.006840e+02,-4.580100e+01,-7.187500e+01,5.400400e+01,1.866210e+02,3.916000e+01
-1.318400e+01,-5.440430e+02,1.259800e+01,-3.857400e+01,-2.714800e+01,2.187500e+01,3.388700e+01,3.818400e+01,2.744100e+01,1.875000e+01,1.953100e+01,-2.474610e+02,-4.785000e+00,-6.230500e+01,-4.912100e+01,-6.699200e+01,5.752000e+01,1.845700e+02,3.535200e+01
1.201200e+01,-5.093750e+02,3.750000e+01,-1.074000e+00,-1.025400e+01,4.688000e+00,4.902300e+01,5.839800e+01,3.212900e+01,3.740200e+01,4.804700e+01,-2.175780e+02,-5.371000e+00,-3.242200e+01,-2.802700e+01,-3.632800e+01,8.212900e+01,2.089840e+02,5.712900e+01
3.115200e+01,-4.834960e+02,6.054700e+01,2.412100e+01,6.348000e+00,-8.789000e+00,6.894500e+01,7.988300e+01,4.365200e+01,5.722700e+01,7.451200e+01,-2.179690e+02,-5.078000e+00,-3.359400e+01,-3.711000e+00,-1.738300e+01,9.863300e+01,2.311520e+02,7.753900e+01
3.320300e+01,-4.729490e+02,6.796900e+01,3.662100e+01,6.152000e+00,-7.910000e+00,7.363300e+01,8.877000e+01,4.384800e+01,6.572300e+01,7.138700e+01,-2.412110e+02,-1.494100e+01,-4.101600e+01,5.078000e+00,-1.132800e+01,1.010740e+02,2.381840e+02,8.496100e+01
4.140600e+01,-4.507810e+02,8.027300e+01,5.068400e+01,9.863000e+00,-1.269500e+01,8.632800e+01,1.118160e+02,5.302700e+01,8.593700e+01,8.378900e+01,-1.874020e+02,-3.046900e+01,5.371000e+00,1.816400e+01,1.582000e+01,1.095700e+02,2.513670e+02,1.045900e+02
5.234400e+01,-4.377930e+02,8.427700e+01,4.765600e+01,1.347700e+01,-1.718700e+01,9.541000e+01,1.213870e+02,6.093700e+01,9.433600e+01,9.726600e+01,-1.352540e+02,-2.529300e+01,2.285200e+01,2.783200e+01,3.017600e+01,1.143550e+02,2.570310e+02,1.107420e+02
3.183600e+01,-4.675780e+02,6.064500e+01,3.232400e+01,-3.418000e+00,9.800000e-02,7.724600e+01,9.609400e+01,5.078100e+01,6.933600e+01,7.060500e+01,-1.881840e+02,-2.490200e+01,-6.445000e+00,7.031000e+00,-1.950000e-01,9.521500e+01,2.333010e+02,8.525400e+01
7.227000e+00,-5.001950e+02,3.447300e+01,4.492000e+00,-1.865200e+01,1.679700e+01,6.250000e+01,7.558600e+01,4.804700e+01,5.029300e+01,4.316400e+01,-2.153320e+02,-2.636700e+01,-1.894500e+01,-1.093700e+01,-2.363300e+01,7.490200e+01,2.100590e+02,6.621100e+01
3.613000e+00,-5.141600e+02,2.890600e+01,-1.474600e+01,-1.835900e+01,1.689500e+01,5.537100e+01,6.250000e+01,4.599600e+01,3.886700e+01,3.447300e+01,-2.128910e+02,-2.675800e+01,-3.769500e+01,-2.226600e+01,-3.877000e+01,7.226600e+01,2.018550e+02,5.566400e+01
-2.441000e+00,-5.323240e+02,2.324200e+01,-3.173800e+01,-2.002000e+01,1.835900e+01,4.013700e+01,4.072300e+01,3.212900e+01,1.826200e+01,2.695300e+01,-2.436520e+02,-1.884800e+01,-6.835900e+01,-4.687500e+01,-5.849600e+01,6.591800e+01,1.911130e+02,3.632800e+01
-9.082000e+00,-5.393550e+02,1.474600e+01,-3.808600e+01,-2.226600e+01,1.591800e+01,3.418000e+01,3.310500e+01,2.441400e+01,1.289100e+01,2.861300e+01,-2.518550e+02,0,-7.646500e+01,-4.736300e+01,-6.191400e+01,6.152300e+01,1.854490e+02,2.978500e+01
8.789000e+00,-5.123050e+02,3.398400e+01,-1.074200e+01,-6.934000e+00,2.930000e-01,5.556600e+01,5.927700e+01,3.984400e+01,3.974600e+01,4.580100e+01,-2.232420e+02,-1.074000e+00,-4.853500e+01,-1.923800e+01,-3.232400e+01,8.017600e+01,2.083980e+02,5.546900e+01
3.388700e+01,-4.803710e+02,6.240200e+01,1.972700e+01,9.277000e+00,-1.210900e+01,7.490200e+01,8.007800e+01,4.912100e+01,5.791000e+01,7.460900e+01,-2.118160e+02,-6.840000e-01,-3.125000e+01,1.074000e+00,-1.162100e+01,1.026370e+02,2.336910e+02,7.705100e+01
4.462900e+01,-4.619140e+02,7.207000e+01,3.574200e+01,1.123000e+01,-1.318400e+01,8.173800e+01,9.326200e+01,4.921900e+01,6.738300e+01,8.418000e+01,-1.891600e+02,-1.279300e+01,-9.863000e+00,7.031000e+00,2.637000e+00,1.111330e+02,2.447270e+02,8.779300e+01
5.205100e+01,-4.421880e+02,8.427700e+01,5.683600e+01,1.640600e+01,-1.796900e+01,9.628900e+01,1.116210e+02,5.996100e+01,8.369100e+01,8.584000e+01,-1.589840e+02,-3.017600e+01,9.082000e+00,2.285200e+01,1.884800e+01,1.209960e+02,2.587890e+02,1.055660e+02
5.263700e+01,-4.368160e+02,8.564500e+01,7.041000e+01,1.240200e+01,-1.630900e+01,9.599600e+01,1.104490e+02,5.957000e+01,8.095700e+01,7.841800e+01,-1.709960e+02,-3.847700e+01,-2.539000e+00,1.992200e+01,1.123000e+01,1.218750e+02,2.585940e+02,1.038090e+02
3.584000e+01,-4.647460e+02,6.777300e+01,4.043000e+01,-2.246000e+00,-2.344000e+00,7.431600e+01,8.212900e+01,4.111300e+01,5.390600e+01,6.259800e+01,-2.083980e+02,-2.666000e+01,-2.988300e+01,2.148000e+00,-1.640600e+01,1.025390e+02,2.345700e+02,7.412100e+01
2.236300e+01,-4.857420e+02,4.726600e+01,2.265600e+01,-1.650400e+01,1.416000e+01,4.804700e+01,6.328100e+01,2.226600e+01,3.867200e+01,4.277300e+01,-2.277340e+02,-2.158200e+01,-3.544900e+01,-1.777300e+01,-3.642600e+01,9.121100e+01,2.144530e+02,5.175800e+01
1.621100e+01,-4.985350e+02,3.486300e+01,1.084000e+01,-1.816400e+01,1.660200e+01,3.984400e+01,5.332000e+01,2.099600e+01,3.125000e+01,3.867200e+01,-2.361330e+02,-1.435500e+01,-3.574200e+01,-3.007800e+01,-3.896500e+01,8.779300e+01,2.059570e+02,4.248000e+01
1.367200e+01,-5.149410e+02,2.578100e+01,-2.070300e+01,-1.777300e+01,1.650400e+01,3.847700e+01,4.082000e+01,2.353500e+01,2.138700e+01,4.335900e+01,-2.167970e+02,5.957000e+00,-4.677700e+01,-3.134800e+01,-4.834000e+01,8.027300e+01,1.974610e+02,3.134800e+01
5.176000e+00,-5.284180e+02,1.669900e+01,-2.822300e+01,-2.119100e+01,1.718700e+01,3.574200e+01,3.535200e+01,2.460900e+01,1.484400e+01,3.154300e+01,-2.324220e+02,1.074200e+01,-4.902300e+01,-3.701200e+01,-5.273400e+01,7.265600e+01,1.910160e+02,2.675800e+01
2.314500e+01,-4.952150e+02,3.964800e+01,7.422000e+00,-6.348000e+00,8.790000e-01,5.459000e+01,5.947300e+01,3.623000e+01,3.632800e+01,5.234400e+01,-2.182620e+02,-1.562000e+00,-3.789100e+01,-2.275400e+01,-2.822300e+01,9.394500e+01,2.136720e+02,5.195300e+01
4.238300e+01,-4.708010e+02,6.494100e+01,3.037100e+01,9.961000e+00,-1.377000e+01,7.607400e+01,8.203100e+01,4.843800e+01,5.654300e+01,7.470700e+01,-2.116210e+02,-6.738000e+00,-3.535200e+01,-6.840000e-01,-1.171900e+01,1.108400e+02,2.372070e+02,7.509800e+01
4.228500e+01,-4.645510e+02,6.923800e+01,3.066400e+01,1.123000e+01,-1.425800e+01,8.486300e+01,1.005860e+02,5.419900e+01,7.021500e+01,7.959000e+01,-2.084960e+02,-1.318400e+01,-4.560500e+01,1.210900e+01,-2.051000e+00,1.099610e+02,2.452150e+02,8.847700e+01
5.068400e+01,-4.438480e+02,8.037100e+01,5.068400e+01,1.435500e+01,-1.689500e+01,9.189500e+01,1.213870e+02,5.976600e+01,9.052700e+01,8.662100e+01,-1.751950e+02,-2.353500e+01,9.863000e+00,2.480500e+01,2.783200e+01,1.200200e+02,2.575200e+02,1.063480e+02
6.035200e+01,-4.317380e+02,9.033200e+01,6.171900e+01,1.777300e+01,-2.285200e+01,9.609400e+01,1.268550e+02,6.201200e+01,9.755900e+01,9.755900e+01,-1.514650e+02,-2.343800e+01,4.453100e+01,2.695300e+01,4.091800e+01,1.260740e+02,2.634770e+02,1.117190e+02
3.886700e+01,-4.635740e+02,6.562500e+01,3.584000e+01,6.840000e-01,-6.836000e+00,7.978500e+01,1.040040e+02,5.185500e+01,7.314500e+01,7.392600e+01,-1.783200e+02,-2.148400e+01,9.473000e+00,5.078000e+00,8.301000e+00,1.041020e+02,2.395510e+02,8.867200e+01
1.748000e+01,-4.905270e+02,4.160200e+01,1.826200e+01,-1.572300e+01,1.191400e+01,5.752000e+01,8.418000e+01,3.769500e+01,5.312500e+01,4.863300e+01,-2.049800e+02,-1.904300e+01,-1.923800e+01,-1.630900e+01,-1.318400e+01,8.701200e+01,2.179690e+02,6.669900e+01
3.906000e+00,-5.135740e+02,2.919900e+01,1.270000e+00,-2.041000e+01,1.865200e+01,4.736300e+01,7.089800e+01,3.388700e+01,4.062500e+01,3.535200e+01,-2.316410e+02,-1.689500e+01,-4.726600e+01,-2.910200e+01,-2.861300e+01,7.822300e+01,2.068360e+02,5.556600e+01
-8.789000e+00,-5.392580e+02,1.777300e+01,-2.763700e+01,-2.275400e+01,2.011700e+01,3.623000e+01,5.253900e+01,2.392600e+01,2.373000e+01,2.695300e+01,-2.551760e+02,-8.691000e+00,-6.826200e+01,-4.052700e+01,-5.009800e+01,6.660200e+01,1.951170e+02,3.935500e+01
-1.425800e+01,-5.451170e+02,1.318400e+01,-4.160200e+01,-1.982400e+01,1.435500e+01,4.072300e+01,4.502000e+01,3.222700e+01,1.972700e+01,2.646500e+01,-2.458010e+02,1.950000e-01,-6.396500e+01,-3.593800e+01,-5.459000e+01,6.171900e+01,1.908200e+02,3.808600e+01
3.613000e+00,-5.184570e+02,3.544900e+01,-1.377000e+01,-4.492000e+00,-9.770000e-01,5.898400e+01,6.962900e+01,4.326200e+01,4.345700e+01,4.199200e+01,-2.204100e+02,-5.762000e+00,-3.945300e+01,-2.197300e+01,-2.871100e+01,8.095700e+01,2.143550e+02,6.328100e+01
2.568400e+01,-4.895510e+02,6.015600e+01,1.767600e+01,1.064500e+01,-1.337900e+01,7.998000e+01,9.248000e+01,5.527300e+01,6.484400e+01,6.494100e+01,-2.168950e+02,-1.084000e+01,-2.763700e+01,-3.613000e+00,-9.473000e+00,1.003910e+02,2.386720e+02,8.662100e+01
3.574200e+01,-4.710940e+02,7.011700e+01,3.584000e+01,1.328100e+01,-1.298800e+01,9.003900e+01,1.075200e+02,5.937500e+01,7.627000e+01,7.587900e+01,-2.028320e+02,-1.865200e+01,-1.943400e+01,6.836000e+00,5.469000e+00,1.076170e+02,2.503910e+02,9.921900e+01
4.335900e+01,-4.508790e+02,7.832000e+01,5.439500e+01,1.455100e+01,-1.640600e+01,9.521500e+01,1.220700e+02,5.839800e+01,9.140600e+01,8.632800e+01,-1.800780e+02,-2.910200e+01,1.328100e+01,1.894500e+01,1.543000e+01,1.152340e+02,2.601560e+02,1.127930e+02
4.648400e+01,-4.445310e+02,8.300800e+01,5.654300e+01,1.669900e+01,-2.128900e+01,1.012700e+02,1.280270e+02,5.976600e+01,9.794900e+01,8.613300e+01,-1.655270e+02,-3.300800e+01,2.597700e+01,3.593800e+01,2.031300e+01,1.161130e+02,2.643550e+02,1.182620e+02
3.261700e+01,-4.694340e+02,6.484400e+01,3.164100e+01,2.930000e-01,-5.957000e+00,7.822300e+01,1.034180e+02,4.384800e+01,7.363300e+01,6.689500e+01,-1.824220e+02,-2.636700e+01,0,4.199000e+00,3.516000e+00,9.941400e+01,2.422850e+02,9.218800e+01
1.455100e+01,-4.940430e+02,4.140600e+01,1.494100e+01,-1.552700e+01,1.347700e+01,5.918000e+01,8.466800e+01,3.828100e+01,5.693400e+01,4.453100e+01,-2.173830e+02,-2.363300e+01,-2.509800e+01,-2.646500e+01,-1.406200e+01,8.535200e+01,2.223630e+02,7.343700e+01
1.172000e+00,-5.153320e+02,2.666000e+01,1.660000e+00,-2.158200e+01,2.002000e+01,5.263700e+01,7.080100e+01,3.886700e+01,4.394500e+01,2.646500e+01,-2.392580e+02,-2.334000e+01,-4.365200e+01,-3.388700e+01,-3.144500e+01,7.724600e+01,2.107420e+02,6.132800e+01
-5.566000e+00,-5.362300e+02,2.294900e+01,-2.177700e+01,-2.080100e+01,1.835900e+01,4.521500e+01,5.127000e+01,3.457000e+01,2.773400e+01,2.197300e+01,-2.531250e+02,-1.386700e+01,-7.255900e+01,-4.345700e+01,-5.546900e+01,7.089800e+01,2.007810e+02,4.638700e+01
-1.328100e+01,-5.474610e+02,8.301000e+00,-3.095700e+01,-2.343800e+01,1.914100e+01,3.886700e+01,4.121100e+01,2.978500e+01,1.933600e+01,2.685500e+01,-2.702150e+02,-1.562000e+00,-8.173800e+01,-4.970700e+01,-6.084000e+01,6.474600e+01,1.922850e+02,3.847700e+01
8.203000e+00,-5.159180e+02,3.134800e+01,-1.201200e+01,-7.031000e+00,2.637000e+00,6.044900e+01,6.757800e+01,4.609400e+01,4.462900e+01,4.873000e+01,-2.304690e+02,-6.934000e+00,-3.623000e+01,-3.115200e+01,-2.558600e+01,8.418000e+01,2.156250e+02,6.543000e+01
3.339800e+01,-4.836910e+02,5.888700e+01,1.005900e+01,1.250000e+01,-1.533200e+01,8.906300e+01,8.779300e+01,6.699200e+01,6.552700e+01,7.197300e+01,-2.106450e+02,-7.813000e+00,-2.255900e+01,4.880000e-01,-6.250000e+00,1.031250e+02,2.399410e+02,9.189500e+01
4.472700e+01,-4.667970e+02,7.255900e+01,3.037100e+01,1.591800e+01,-1.777300e+01,9.502000e+01,1.029300e+02,6.406300e+01,7.548800e+01,8.271500e+01,-1.987300e+02,-1.103500e+01,-1.337900e+01,1.601600e+01,3.711000e+00,1.122070e+02,2.509770e+02,1.014650e+02
5.439500e+01,-4.435550e+02,8.232400e+01,5.986300e+01,1.640600e+01,-1.757800e+01,9.482400e+01,1.245120e+02,5.878900e+01,9.316400e+01,8.759800e+01,-1.718750e+02,-1.630900e+01,1.406200e+01,2.832000e+01,25,1.232420e+02,2.618160e+02,1.138670e+02
6.279300e+01,-4.288090e+02,8.857400e+01,7.363300e+01,1.464800e+01,-1.796900e+01,9.013700e+01,1.369140e+02,5.371100e+01,1.040040e+02,9.609400e+01,-1.671880e+02,-2.871100e+01,2.656300e+01,2.460900e+01,3.564500e+01,1.298830e+02,2.668950e+02,1.188480e+02
4.218800e+01,-4.593750e+02,6.494100e+01,4.873000e+01,-2.637000e+00,-1.562000e+00,7.080100e+01,1.122070e+02,4.238300e+01,8.359400e+01,7.568400e+01,-2.061520e+02,-2.773400e+01,-1.337900e+01,-1.465000e+00,4.883000e+00,1.078120e+02,2.426760e+02,9.394500e+01
1.738300e+01,-4.916020e+02,4.072300e+01,2.597700e+01,-2.031300e+01,1.777300e+01,4.970700e+01,8.945300e+01,3.095700e+01,6.015600e+01,4.345700e+01,-2.416020e+02,-2.880900e+01,-4.951200e+01,-2.978500e+01,-2.187500e+01,8.759800e+01,2.183590e+02,7.109400e+01
1.308600e+01,-5.036130e+02,3.261700e+01,5.762000e+00,-2.168000e+01,2.060500e+01,4.257800e+01,7.177700e+01,2.988300e+01,4.746100e+01,3.906200e+01,-2.318360e+02,-1.718700e+01,-3.359400e+01,-3.369100e+01,-2.627000e+01,8.388700e+01,2.083010e+02,5.898400e+01
1.181600e+01,-5.178710e+02,2.334000e+01,-1.582000e+01,-2.002000e+01,1.865200e+01,4.228500e+01,5.556600e+01,3.320300e+01,3.300800e+01,4.492200e+01,-2.522460e+02,1.758000e+00,-5.908200e+01,-2.851600e+01,-4.267600e+01,7.939500e+01,2.011720e+02,4.824200e+01
1.950000e-01,-5.317380e+02,1.367200e+01,-1.962900e+01,-2.285200e+01,1.728500e+01,3.896500e+01,3.964800e+01,3.632800e+01,1.679700e+01,3.554700e+01,-2.674800e+02,9.375000e+00,-6.650400e+01,-3.691400e+01,-5.996100e+01,7.031200e+01,1.907230e+02,3.867200e+01
1.455100e+01,-5.041020e+02,3.330100e+01,-1.950000e-01,-8.887000e+00,2.344000e+00,5.908200e+01,6.367200e+01,5.205100e+01,4.033200e+01,5.058600e+01,-2.269530e+02,3.418000e+00,-4.589800e+01,-1.933600e+01,-3.242200e+01,8.623000e+01,2.115230e+02,6.377000e+01
3.681600e+01,-4.780270e+02,5.800800e+01,1.884800e+01,7.813000e+00,-1.093700e+01,7.783200e+01,8.740200e+01,5.556600e+01,6.377000e+01,7.431600e+01,-1.967770e+02,-1.950000e-01,-2.451200e+01,5.664000e+00,-5.762000e+00,1.047850e+02,2.348630e+02,8.457000e+01
4.912100e+01,-4.592770e+02,7.080100e+01,4.697300e+01,1.259800e+01,-1.435500e+01,8.564500e+01,9.941400e+01,5.214800e+01,7.734400e+01,8.603500e+01,-2.125980e+02,-6.543000e+00,-1.103500e+01,2.021500e+01,7.617000e+00,1.151370e+02,2.460940e+02,9.433600e+01
5.947300e+01,-4.384770e+02,8.056600e+01,5.859400e+01,1.523400e+01,-1.699200e+01,9.628900e+01,1.191410e+02,6.044900e+01,9.570300e+01,8.955100e+01,-1.706050e+02,-1.689500e+01,1.435500e+01,2.949200e+01,3.173800e+01,1.211910e+02,2.569340e+02,1.113280e+02
6.435500e+01,-4.288090e+02,8.779300e+01,6.377000e+01,1.386700e+01,-1.816400e+01,9.619100e+01,1.270510e+02,5.849600e+01,1.001950e+02,8.896500e+01,-1.632810e+02,-2.939500e+01,1.533200e+01,2.773400e+01,3.281200e+01,1.253910e+02,2.628910e+02,1.169920e+02
4.794900e+01,-4.549800e+02,7.050800e+01,4.628900e+01,-6.840000e-01,-4.395000e+00,7.597700e+01,1.011720e+02,4.599600e+01,7.685500e+01,7.109400e+01,-1.929690e+02,-2.509800e+01,6.840000e-01,6.934000e+00,5.273000e+00,1.095700e+02,2.419920e+02,9.140600e+01
2.812500e+01,-4.816410e+02,4.365200e+01,2.382800e+01,-1.582000e+01,1.181600e+01,5.937500e+01,7.968800e+01,3.789100e+01,5.800800e+01,5.332000e+01,-2.137700e+02,-1.962900e+01,-1.689500e+01,-1.425800e+01,-1.396500e+01,9.218800e+01,2.197270e+02,7.050800e+01
1.699200e+01,-5.018550e+02,2.988300e+01,-1.074000e+00,-1.796900e+01,1.669900e+01,5.449200e+01,6.621100e+01,3.906200e+01,4.707000e+01,4.257800e+01,-2.168950e+02,-6.836000e+00,-3.720700e+01,-2.294900e+01,-2.539100e+01,8.369100e+01,2.082030e+02,6.005900e+01
9.668000e+00,-5.230470e+02,2.548800e+01,-2.060500e+01,-1.660200e+01,1.601600e+01,4.882800e+01,4.609400e+01,3.593800e+01,2.744100e+01,3.398400e+01,-2.520510e+02,-1.425800e+01,-6.669900e+01,-3.447300e+01,-5.019500e+01,7.695300e+01,1.987300e+02,4.443400e+01
1.950000e-01,-5.384770e+02,1.699200e+01,-3.505900e+01,-2.060500e+01,1.796900e+01,3.632800e+01,3.134800e+01,2.851600e+01,1.416000e+01,2.753900e+01,-2.683590e+02,-3.066400e+01,-7.382800e+01,-5.273400e+01,-6.210900e+01,6.767600e+01,1.881840e+02,3.134800e+01
1.464800e+01,-5.115230e+02,3.330100e+01,-6.934000e+00,-6.641000e+00,2.930000e+00,5.429700e+01,5.185500e+01,4.003900e+01,3.369100e+01,4.775400e+01,-2.437500e+02,-2.060500e+01,-4.746100e+01,-3.134800e+01,-3.935500e+01,8.457000e+01,2.089840e+02,5.380900e+01
3.320300e+01,-4.842770e+02,5.644500e+01,1.904300e+01,8.984000e+00,-1.171900e+01,7.773400e+01,7.363300e+01,5.371100e+01,5.429700e+01,7.226600e+01,-2.304690e+02,4.880000e-01,-2.910200e+01,3.320000e+00,-2.597700e+01,1.020510e+02,2.320310e+02,7.597700e+01
4.502000e+01,-4.642580e+02,6.718800e+01,3.476600e+01,1.347700e+01,-1.455100e+01,8.740200e+01,9.335900e+01,5.615200e+01,7.285200e+01,8.418000e+01,-2.106450e+02,3.516000e+00,-1.367200e+01,1.845700e+01,-5.273000e+00,1.108400e+02,2.447270e+02,8.955100e+01
5.468800e+01,-4.448240e+02,7.685500e+01,5.293000e+01,1.240200e+01,-1.416000e+01,8.789100e+01,1.141600e+02,5.351600e+01,9.179700e+01,9.228500e+01,-1.893550e+02,-8.496000e+00,8.789000e+00,2.529300e+01,2.529300e+01,1.191410e+02,2.546880e+02,1.026370e+02
6.240200e+01,-4.324220e+02,8.339800e+01,6.416000e+01,1.396500e+01,-1.826200e+01,9.326200e+01,1.259770e+02,5.644500e+01,1.011720e+02,9.834000e+01,-1.744140e+02,-1.884800e+01,2.216800e+01,3.701200e+01,3.964800e+01,125,2.629880e+02,1.114260e+02
4.228500e+01,-4.616210e+02,6.269500e+01,4.072300e+01,-2.832000e+00,-2.734000e+00,7.294900e+01,1.006840e+02,4.345700e+01,75,7.460900e+01,-2.090820e+02,-1.591800e+01,-1.455100e+01,9.766000e+00,5.273000e+00,1.055660e+02,2.401370e+02,8.515600e+01
1.982400e+01,-4.910160e+02,3.867200e+01,1.787100e+01,-2.080100e+01,1.699200e+01,5.302700e+01,7.802700e+01,3.525400e+01,5.283200e+01,5.293000e+01,-2.293950e+02,-2.490200e+01,-4.589800e+01,-2.089800e+01,-2.353500e+01,8.750000e+01,2.175780e+02,6.347700e+01
5.371000e+00,-5.121090e+02,2.519500e+01,7.810000e-01,-2.617200e+01,2.382800e+01,4.716800e+01,6.367200e+01,3.984400e+01,4.248000e+01,3.291000e+01,-2.395510e+02,-2.246100e+01,-4.658200e+01,-3.525400e+01,-3.769500e+01,7.744100e+01,2.045900e+02,5.410200e+01
6.250000e+00,-5.256840e+02,2.695300e+01,-2.314500e+01,-1.787100e+01,1.640600e+01,4.970700e+01,5.048800e+01,4.384800e+01,3.164100e+01,3.671900e+01,-2.558590e+02,1.950000e-01,-5.644500e+01,-2.968800e+01,-5.341800e+01,7.451200e+01,2.001950e+02,4.472700e+01
-5.566000e+00,-5.441410e+02,1.201200e+01,-3.789100e+01,-2.402300e+01,2.050800e+01,3.447300e+01,3.828100e+01,2.890600e+01,1.972700e+01,3.154300e+01,-2.849610e+02,9.180000e+00,-7.695300e+01,-4.277300e+01,-5.605500e+01,6.455100e+01,1.879880e+02,2.959000e+01
8.008000e+00,-5.171880e+02,2.539100e+01,-5.273000e+00,-1.523400e+01,9.570000e+00,4.296900e+01,5.839800e+01,2.900400e+01,3.867200e+01,4.951200e+01,-2.673830e+02,2.930000e+00,-7.666000e+01,-3.095700e+01,-3.408200e+01,8.164100e+01,2.061520e+02,4.941400e+01
2.353500e+01,-4.932620e+02,4.687500e+01,1.337900e+01,-5.860000e-01,-2.441000e+00,6.503900e+01,8.369100e+01,4.248000e+01,5.839800e+01,6.650400e+01,-2.522460e+02,-7.422000e+00,-6.416000e+01,-1.562000e+00,-1.972700e+01,9.560500e+01,2.286130e+02,7.451200e+01
4.150400e+01,-4.711910e+02,6.591800e+01,2.216800e+01,1.064500e+01,-1.210900e+01,8.242200e+01,9.941400e+01,5.449200e+01,7.470700e+01,8.164100e+01,-2.080080e+02,-1.171900e+01,-8.203000e+00,1.347700e+01,8.790000e-01,1.072270e+02,2.447270e+02,9.248000e+01
4.267600e+01,-4.607420e+02,7.128900e+01,3.564500e+01,1.015600e+01,-1.123000e+01,9.062500e+01,1.162110e+02,6.142600e+01,8.769500e+01,7.890600e+01,-1.903320e+02,-2.793000e+01,1.015600e+01,1.787100e+01,1.894500e+01,1.099610e+02,2.530270e+02,1.070310e+02
5.488300e+01,-4.381840e+02,8.095700e+01,6.162100e+01,1.181600e+01,-1.513700e+01,9.296900e+01,1.257810e+02,5.683600e+01,9.433600e+01,8.945300e+01,-1.790040e+02,-3.496100e+01,2.138700e+01,2.168000e+01,2.656300e+01,1.204100e+02,2.623050e+02,1.139650e+02
4.218800e+01,-4.582030e+02,5.918000e+01,4.599600e+01,-4.688000e+00,-3.910000e-01,7.080100e+01,1.047850e+02,3.984400e+01,75,7.285200e+01,-2.062500e+02,-3.046900e+01,7.810000e-01,-1.367000e+00,6.840000e-01,1.042970e+02,2.416020e+02,9.003900e+01
1.709000e+01,-4.972660e+02,3.691400e+01,5.176000e+00,-1.699200e+01,1.406200e+01,5.898400e+01,8.623000e+01,3.925800e+01,5.937500e+01,5.058600e+01,-2.266600e+02,-2.304700e+01,-2.753900e+01,-1.709000e+01,-1.582000e+01,8.154300e+01,2.193360e+02,7.265600e+01
2.930000e-01,-5.209960e+02,2.275400e+01,-1.298800e+01,-2.294900e+01,2.265600e+01,4.970700e+01,7.207000e+01,3.525400e+01,4.462900e+01,3.544900e+01,-2.458980e+02,-1.894500e+01,-4.814500e+01,-3.388700e+01,-3.242200e+01,7.041000e+01,2.065430e+02,5.996100e+01
-5.273000e+00,-5.357420e+02,1.455100e+01,-2.529300e+01,-2.285200e+01,2.246100e+01,4.726600e+01,5.683600e+01,3.486300e+01,3.222700e+01,2.793000e+01,-2.649410e+02,-1.308600e+01,-6.718800e+01,-4.462900e+01,-5.302700e+01,6.669900e+01,1.990230e+02,4.931600e+01
-1.933600e+01,-5.561520e+02,0,-4.394500e+01,-2.939500e+01,2.548800e+01,3.691400e+01,3.955100e+01,2.695300e+01,1.953100e+01,1.318400e+01,-2.839840e+02,-9.180000e+00,-8.994100e+01,-5.966800e+01,-6.787100e+01,5.449200e+01,1.851560e+02,3.476600e+01
-7.715000e+00,-5.366210e+02,1.650400e+01,-2.246100e+01,-1.601600e+01,1.191400e+01,5.478500e+01,5.849600e+01,4.326200e+01,3.984400e+01,2.558600e+01,-2.574220e+02,-1.552700e+01,-6.777300e+01,-4.218800e+01,-4.511700e+01,6.835900e+01,2.041020e+02,5.791000e+01
1.240200e+01,-5.085940e+02,4.277300e+01,5.664000e+00,1.465000e+00,-3.418000e+00,7.373000e+01,7.558600e+01,4.863300e+01,5.058600e+01,4.834000e+01,-2.462890e+02,-1.796900e+01,-4.912100e+01,-1.748000e+01,-2.832000e+01,8.740200e+01,2.272460e+02,7.763700e+01
3.173800e+01,-4.818360e+02,5.712900e+01,2.460900e+01,7.910000e+00,-8.203000e+00,7.939500e+01,9.668000e+01,4.062500e+01,6.650400e+01,7.304700e+01,-2.276370e+02,-1.943400e+01,-2.216800e+01,1.950000e-01,-5.664000e+00,1.003910e+02,2.423830e+02,9.062500e+01
4.228500e+01,-4.600590e+02,6.777300e+01,3.877000e+01,9.082000e+00,-9.668000e+00,8.632800e+01,1.153320e+02,4.355500e+01,8.525400e+01,7.890600e+01,-1.915040e+02,-3.037100e+01,1.367000e+00,6.250000e+00,1.660200e+01,1.083980e+02,2.523440e+02,1.056640e+02
4.960900e+01,-4.440430e+02,75,6.044900e+01,1.123000e+01,-1.552700e+01,9.541000e+01,1.253910e+02,4.843800e+01,9.365200e+01,8.320300e+01,-1.958010e+02,-4.160200e+01,6.445000e+00,1.718700e+01,2.441400e+01,1.152340e+02,2.617190e+02,1.157230e+02
2.763700e+01,-4.719730e+02,5.107400e+01,3.964800e+01,-5.664000e+00,-6.840000e-01,8.037100e+01,1.028320e+02,4.111300e+01,7.216800e+01,6.484400e+01,-2.369140e+02,-4.423800e+01,-2.168000e+01,-2.832000e+00,-6.055000e+00,9.511700e+01,2.396480e+02,9.277300e+01
3.418000e+00,-5.053710e+02,2.832000e+01,9.766000e+00,-2.138700e+01,1.669900e+01,6.093700e+01,8.066400e+01,3.222700e+01,5.312500e+01,4.218800e+01,-2.495120e+02,-3.877000e+01,-6.259800e+01,-3.125000e+01,-2.978500e+01,7.441400e+01,2.160160e+02,7.060500e+01
-9.668000e+00,-5.279300e+02,1.523400e+01,-1.084000e+01,-2.519500e+01,2.109400e+01,5.293000e+01,6.435500e+01,3.300800e+01,4.209000e+01,2.636700e+01,-2.648440e+02,-2.109400e+01,-6.201200e+01,-4.013700e+01,-4.248000e+01,6.357400e+01,2.017580e+02,5.839800e+01
-8.301000e+00,-5.397460e+02,1.435500e+01,-3.076200e+01,-1.875000e+01,1.660200e+01,5.634800e+01,4.843800e+01,3.769500e+01,2.793000e+01,3.496100e+01,-2.606450e+02,-7.813000e+00,-6.386700e+01,-3.584000e+01,-6.181600e+01,6.250000e+01,1.966800e+02,4.873000e+01
-2.148400e+01,-5.620120e+02,-2.734000e+00,-5.390600e+01,-2.705100e+01,2.158200e+01,4.423800e+01,3.095700e+01,2.900400e+01,1.044900e+01,2.011700e+01,-2.916990e+02,-4.492000e+00,-8.535200e+01,-5.078100e+01,-8.017600e+01,4.980500e+01,1.825200e+02,3.320300e+01
-6.348000e+00,-5.381840e+02,1.621100e+01,-3.085900e+01,-1.347700e+01,5.762000e+00,6.113300e+01,5.537100e+01,4.316400e+01,3.584000e+01,3.584000e+01,-2.746090e+02,-9.863000e+00,-5.634800e+01,-3.857400e+01,-4.599600e+01,6.660200e+01,2.021480e+02,5.791000e+01
1.289100e+01,-5.076170e+02,3.750000e+01,2.051000e+00,2.246000e+00,-6.543000e+00,8.320300e+01,7.744100e+01,5.468800e+01,5.302700e+01,5.595700e+01,-2.513670e+02,-1.494100e+01,-3.134800e+01,-9.863000e+00,-2.519500e+01,8.593700e+01,2.258790e+02,8.076200e+01
2.919900e+01,-4.858400e+02,5.546900e+01,1.572300e+01,1.230500e+01,-1.367200e+01,9.960900e+01,9.375000e+01,6.474600e+01,6.835900e+01,7.265600e+01,-2.283200e+02,-1.650400e+01,-2.177700e+01,1.093700e+01,-1.357400e+01,9.785200e+01,2.424800e+02,9.726600e+01
4.072300e+01,-4.643550e+02,6.582000e+01,3.671900e+01,1.230500e+01,-1.328100e+01,9.980500e+01,1.108400e+02,6.250000e+01,8.418000e+01,7.900400e+01,-2.067380e+02,-2.705100e+01,-3.418000e+00,1.582000e+01,8.008000e+00,1.071290e+02,2.522460e+02,1.090820e+02
5.312500e+01,-4.433590e+02,7.871100e+01,5.996100e+01,1.630900e+01,-1.777300e+01,1.053710e+02,1.278320e+02,6.406300e+01,9.843800e+01,9.052700e+01,-1.913090e+02,-3.759800e+01,1.064500e+01,2.539100e+01,2.685500e+01,1.184570e+02,2.642580e+02,1.206050e+02
3.496100e+01,-4.700200e+02,5.664100e+01,3.691400e+01,-3.910000e-01,-4.102000e+00,8.916000e+01,1.056640e+02,5.488300e+01,7.587900e+01,7.060500e+01,-2.180660e+02,-3.496100e+01,-2.148400e+01,5.469000e+00,-3.418000e+00,9.921900e+01,2.426760e+02,9.775400e+01
1.562500e+01,-4.967770e+02,3.466800e+01,1.377000e+01,-1.855500e+01,1.513700e+01,6.416000e+01,8.593700e+01,3.945300e+01,5.683600e+01,4.462900e+01,-2.415040e+02,-3.310500e+01,-3.964800e+01,-2.275400e+01,-2.148400e+01,8.330100e+01,2.200200e+02,75
7.910000e+00,-5.155270e+02,2.627000e+01,1.465000e+00,-2.460900e+01,2.334000e+01,4.599600e+01,7.255900e+01,2.724600e+01,4.775400e+01,2.949200e+01,-2.460940e+02,-3.320300e+01,-4.814500e+01,-4.140600e+01,-2.841800e+01,7.793000e+01,2.075200e+02,6.044900e+01
1.270000e+00,-5.344730e+02,1.279300e+01,-6.348000e+00,-25,2.324200e+01,3.798800e+01,5.302700e+01,2.392600e+01,3.193400e+01,2.685500e+01,-2.726560e+02,-3.496100e+01,-8.232400e+01,-5.595700e+01,-5.244100e+01,7.334000e+01,1.992190e+02,4.677700e+01
-1.484400e+01,-5.579100e+02,-2.344000e+00,-3.808600e+01,-3.222700e+01,2.744100e+01,2.568400e+01,3.212900e+01,1.640600e+01,1.171900e+01,1.113300e+01,-3.018550e+02,-2.724600e+01,-9.609400e+01,-7.519500e+01,-7.490200e+01,5.742200e+01,1.832030e+02,2.871100e+01
1.758000e+00,-5.315430e+02,2.041000e+01,-2.656300e+01,-1.445300e+01,8.594000e+00,4.912100e+01,5.429700e+01,3.525400e+01,3.320300e+01,2.431600e+01,-2.580080e+02,-2.558600e+01,-5.693400e+01,-5.097700e+01,-4.453100e+01,7.285200e+01,2.040040e+02,5.361300e+01
2.822300e+01,-5.034180e+02,4.521500e+01,9.800000e-02,2.051000e+00,-5.762000e+00,7.412100e+01,7.480500e+01,4.863300e+01,4.873000e+01,4.296900e+01,-2.458980e+02,-3.007800e+01,-5.097700e+01,-1.835900e+01,-2.744100e+01,9.277300e+01,2.291990e+02,7.705100e+01
3.486300e+01,-4.913090e+02,5.449200e+01,1.552700e+01,7.324000e+00,-9.375000e+00,8.730500e+01,9.492200e+01,5.781300e+01,6.298800e+01,6.855500e+01,-2.567380e+02,-1.718700e+01,-4.726600e+01,8.496000e+00,-1.416000e+01,1.010740e+02,2.442380e+02,9.306600e+01
3.984400e+01,-4.683590e+02,6.015600e+01,4.043000e+01,5.859000e+00,-8.203000e+00,8.886700e+01,1.061520e+02,5.615200e+01,7.724600e+01,8.261700e+01,-2.088870e+02,-1.640600e+01,5.566000e+00,1.718700e+01,8.203000e+00,1.099610e+02,2.526370e+02,1.034180e+02
5.722700e+01,-4.390630e+02,7.900400e+01,6.650400e+01,1.396500e+01,-1.806600e+01,9.882800e+01,1.233400e+02,6.142600e+01,9.677700e+01,8.896500e+01,-1.783200e+02,-2.285200e+01,3.496100e+01,3.505900e+01,3.027300e+01,1.255860e+02,2.679690e+02,1.183590e+02
4.736300e+01,-4.556640e+02,6.152300e+01,4.980500e+01,-1.660000e+00,-3.809000e+00,7.783200e+01,1.037110e+02,4.560500e+01,8.105500e+01,7.812500e+01,-2.058590e+02,-2.763700e+01,-1.270000e+00,9.180000e+00,9.800000e-02,1.116210e+02,2.487300e+02,9.668000e+01
2.490200e+01,-4.886720e+02,3.603500e+01,2.089800e+01,-1.953100e+01,1.533200e+01,5.761700e+01,8.447300e+01,3.789100e+01,6.679700e+01,5.498000e+01,-2.414060e+02,-3.105500e+01,-2.939500e+01,-2.705100e+01,-1.826200e+01,9.160200e+01,2.256840e+02,7.451200e+01
8.105000e+00,-5.130860e+02,2.060500e+01,1.758000e+00,-2.656300e+01,2.470700e+01,4.638700e+01,6.142600e+01,3.310500e+01,3.964800e+01,3.740200e+01,-2.563480e+02,-2.558600e+01,-4.863300e+01,-4.335900e+01,-3.203100e+01,7.968800e+01,2.095700e+02,5.537100e+01
7.031000e+00,-5.231450e+02,1.601600e+01,-1.093700e+01,-2.431600e+01,2.246100e+01,4.082000e+01,4.043000e+01,2.773400e+01,1.894500e+01,3.037100e+01,-2.814450e+02,-1.709000e+01,-6.464800e+01,-4.433600e+01,-5.361300e+01,7.890600e+01,2.028320e+02,4.169900e+01
-7.031000e+00,-5.481450e+02,2.148000e+00,-3.447300e+01,-2.998000e+01,2.627000e+01,2.939500e+01,2.285200e+01,2.177700e+01,4.980000e+00,1.923800e+01,-3.197270e+02,-8.203000e+00,-8.378900e+01,-5.576200e+01,-7.099600e+01,6.591800e+01,1.882810e+02,2.548800e+01
8.203000e+00,-5.251950e+02,1.933600e+01,-6.348000e+00,-1.835900e+01,1.152300e+01,4.052700e+01,4.423800e+01,2.568400e+01,2.431600e+01,3.369100e+01,-3.008790e+02,-1.279300e+01,-7.050800e+01,-4.375000e+01,-4.521500e+01,8.252000e+01,2.056640e+02,4.267600e+01
2.568400e+01,-4.992190e+02,4.199200e+01,1.835900e+01,-2.539000e+00,-3.125000e+00,6.132800e+01,7.041000e+01,3.710900e+01,4.716800e+01,5.439500e+01,-2.692380e+02,-1.914100e+01,-3.837900e+01,-2.002000e+01,-2.314500e+01,9.882800e+01,2.279300e+02,6.582000e+01
4.414100e+01,-4.737300e+02,6.171900e+01,2.744100e+01,1.093700e+01,-1.396500e+01,8.115200e+01,9.189500e+01,4.941400e+01,6.777300e+01,7.763700e+01,-2.188480e+02,-1.845700e+01,-1.640600e+01,5.859000e+00,-2.930000e+00,1.106450e+02,2.461910e+02,8.486300e+01
5.205100e+01,-4.523440e+02,6.894500e+01,4.531200e+01,1.113300e+01,-1.240200e+01,8.701200e+01,1.097660e+02,5.117200e+01,8.232400e+01,8.125000e+01,-1.916020e+02,-2.480500e+01,1.660000e+00,1.386700e+01,1.650400e+01,1.168950e+02,2.545900e+02,9.824200e+01
6.396500e+01,-4.327150e+02,8.544900e+01,6.699200e+01,1.650400e+01,-1.845700e+01,9.648400e+01,1.279300e+02,5.605500e+01,9.697300e+01,9.169900e+01,-1.811520e+02,-3.486300e+01,1.923800e+01,2.304700e+01,3.203100e+01,1.287110e+02,2.691410e+02,1.135740e+02
4.736300e+01,-4.599610e+02,6.543000e+01,4.306600e+01,2.051000e+00,-4.688000e+00,8.085900e+01,1.086910e+02,4.443400e+01,7.519500e+01,7.607400e+01,-2.137700e+02,-3.085900e+01,-4.688000e+00,8.008000e+00,4.883000e+00,1.112300e+02,2.504880e+02,9.150400e+01
2.548800e+01,-4.901370e+02,3.906200e+01,1.816400e+01,-1.455100e+01,1.250000e+01,6.025400e+01,8.916000e+01,3.378900e+01,5.752000e+01,5.019500e+01,-2.394530e+02,-2.705100e+01,-2.490200e+01,-1.611300e+01,-1.630900e+01,9.228500e+01,2.270510e+02,6.982400e+01
1.044900e+01,-5.126950e+02,2.402300e+01,1.758000e+00,-2.246100e+01,2.187500e+01,4.658200e+01,7.255900e+01,2.978500e+01,4.248000e+01,3.593800e+01,-2.672850e+02,-1.923800e+01,-4.267600e+01,-3.554700e+01,-3.046900e+01,8.164100e+01,2.116210e+02,5.507800e+01
9.668000e+00,-5.251950e+02,1.933600e+01,-9.473000e+00,-2.050800e+01,2.011700e+01,4.345700e+01,5.957000e+01,3.212900e+01,3.115200e+01,3.271500e+01,-2.793950e+02,-1.455100e+01,-5.800800e+01,-4.375000e+01,-4.824200e+01,7.988300e+01,2.063480e+02,4.599600e+01
-5.957000e+00,-5.504880e+02,4.395000e+00,-3.310500e+01,-2.617200e+01,2.285200e+01,3.486300e+01,3.789100e+01,2.724600e+01,1.132800e+01,1.640600e+01,-3.034180e+02,-8.594000e+00,-8.515600e+01,-5.605500e+01,-7.168000e+01,6.582000e+01,1.903320e+02,2.988300e+01
6.152000e+00,-5.280270e+02,1.748000e+01,-9.863000e+00,-1.718700e+01,1.191400e+01,4.785200e+01,5.605500e+01,3.427700e+01,2.568400e+01,3.154300e+01,-2.747070e+02,-1.464800e+01,-6.503900e+01,-4.687500e+01,-4.921900e+01,8.007800e+01,2.069340e+02,4.853500e+01
2.334000e+01,-5.036130e+02,3.867200e+01,8.398000e+00,-2.930000e+00,-1.953000e+00,6.875000e+01,8.339800e+01,4.921900e+01,4.951200e+01,5.341800e+01,-2.603520e+02,-2.265600e+01,-4.755900e+01,-2.392600e+01,-2.314500e+01,9.707000e+01,2.298830e+02,7.343700e+01
4.209000e+01,-4.812500e+02,6.201200e+01,2.216800e+01,1.064500e+01,-1.181600e+01,8.496100e+01,1.036130e+02,6.005900e+01,6.894500e+01,7.412100e+01,-2.367190e+02,-2.031300e+01,-1.845700e+01,-2.930000e+00,-1.855000e+00,1.112300e+02,2.489260e+02,9.267600e+01
5.078100e+01,-4.603520e+02,7.294900e+01,4.521500e+01,1.347700e+01,-1.406200e+01,9.277300e+01,1.172850e+02,6.035200e+01,8.076200e+01,8.281200e+01,-2.135740e+02,-2.031300e+01,9.570000e+00,1.347700e+01,1.386700e+01,1.184570e+02,2.573240e+02,1.038090e+02
6.181600e+01,-4.377930e+02,8.242200e+01,7.158200e+01,1.728500e+01,-1.845700e+01,1.019530e+02,1.358400e+02,5.927700e+01,9.716800e+01,9.238300e+01,-1.839840e+02,-2.910200e+01,2.763700e+01,3.291000e+01,2.705100e+01,1.293950e+02,2.712890e+02,1.187500e+02
5.029300e+01,-4.549800e+02,6.445300e+01,6.250000e+01,-1.562000e+00,-3.027000e+00,7.587900e+01,1.153320e+02,3.877000e+01,7.607400e+01,6.826200e+01,-2.211910e+02,-3.896500e+01,-5.176000e+00,-3.320000e+00,-1.074000e+00,1.163090e+02,2.528320e+02,9.453100e+01
3.125000e+01,-4.872070e+02,4.658200e+01,2.666000e+01,-1.298800e+01,9.766000e+00,6.103500e+01,9.531200e+01,3.769500e+01,5.966800e+01,4.521500e+01,-2.424800e+02,-3.349600e+01,-2.441400e+01,-2.373000e+01,-1.484400e+01,9.814500e+01,2.310550e+02,7.568400e+01
1.357400e+01,-5.117190e+02,2.451200e+01,5.860000e-01,-2.207000e+01,1.943400e+01,4.941400e+01,7.968800e+01,3.418000e+01,4.541000e+01,3.261700e+01,-2.539060e+02,-2.187500e+01,-3.652300e+01,-3.710900e+01,-2.373000e+01,8.496100e+01,2.144530e+02,6.142600e+01
9.570000e+00,-5.251950e+02,1.816400e+01,-1.367200e+01,-2.080100e+01,1.933600e+01,4.589800e+01,6.709000e+01,3.261700e+01,3.320300e+01,3.242200e+01,-2.629880e+02,-1.679700e+01,-4.726600e+01,-4.189500e+01,-4.043000e+01,8.242200e+01,2.095700e+02,5.214800e+01
7.810000e-01,-5.459960e+02,8.691000e+00,-3.515600e+01,-2.334000e+01,2.089800e+01,3.779300e+01,4.775400e+01,2.832000e+01,1.835900e+01,2.646500e+01,-2.871090e+02,-3.223000e+00,-6.992200e+01,-5.078100e+01,-5.839800e+01,7.138700e+01,1.959960e+02,3.701200e+01
9.863000e+00,-5.295900e+02,1.933600e+01,-1.572300e+01,-1.562500e+01,1.064500e+01,4.277300e+01,6.377000e+01,2.656300e+01,3.183600e+01,3.691400e+01,-2.857420e+02,-5.664000e+00,-8.027300e+01,-3.906200e+01,-4.228500e+01,8.242200e+01,2.089840e+02,5.097700e+01
2.441400e+01,-5.051760e+02,3.994100e+01,9.570000e+00,-2.441000e+00,-2.246000e+00,5.742200e+01,8.759800e+01,3.466800e+01,5.127000e+01,5.341800e+01,-2.764650e+02,-1.669900e+01,-6.132800e+01,-25,-2.304700e+01,9.843800e+01,2.310550e+02,7.285200e+01
4.892600e+01,-4.719730e+02,6.630900e+01,3.789100e+01,1.572300e+01,-1.767600e+01,8.300800e+01,1.024410e+02,5.253900e+01,6.748000e+01,8.007800e+01,-2.304690e+02,-1.259800e+01,-4.102000e+00,-1.270000e+00,-2.637000e+00,1.181640e+02,2.533200e+02,9.365200e+01
5.205100e+01,-4.577150e+02,7.050800e+01,5.752000e+01,1.562500e+01,-1.660200e+01,8.984400e+01,1.166020e+02,5.380900e+01,7.988300e+01,8.642600e+01,-2.246090e+02,-1.718700e+01,8.790000e-01,1.269500e+01,1.044900e+01,1.220700e+02,2.605470e+02,1.047850e+02
6.337900e+01,-4.362300e+02,8.515600e+01,7.304700e+01,2.216800e+01,-25,1.025390e+02,1.392580e+02,5.800800e+01,1.025390e+02,9.589800e+01,-2.083980e+02,-2.783200e+01,2.353500e+01,3.369100e+01,2.773400e+01,1.331050e+02,2.752930e+02,1.227540e+02
4.931600e+01,-4.587890e+02,7.002000e+01,4.218800e+01,1.054700e+01,-1.562500e+01,9.306600e+01,1.203120e+02,5.244100e+01,8.486300e+01,8.252000e+01,-2.194340e+02,-2.734400e+01,7.227000e+00,2.177700e+01,-3.223000e+00,1.159180e+02,2.581050e+02,1.044920e+02
2.675800e+01,-4.898440e+02,4.521500e+01,1.982400e+01,-5.371000e+00,2.441000e+00,7.558600e+01,9.736300e+01,4.628900e+01,6.435500e+01,5.654300e+01,-2.469730e+02,-2.812500e+01,-25,-5.371000e+00,-2.138700e+01,9.687500e+01,2.348630e+02,8.252000e+01
9.473000e+00,-5.150390e+02,2.773400e+01,-3.910000e-01,-1.523400e+01,1.386700e+01,6.084000e+01,8.330100e+01,4.423800e+01,5.361300e+01,3.847700e+01,-2.669920e+02,-2.968800e+01,-4.189500e+01,-3.027300e+01,-2.841800e+01,8.466800e+01,2.177730e+02,6.884800e+01
8.984000e+00,-5.290040e+02,2.226600e+01,-1.650400e+01,-1.318400e+01,1.142600e+01,5.898400e+01,6.875000e+01,4.658200e+01,4.384800e+01,3.466800e+01,-2.863280e+02,-2.011700e+01,-6.152300e+01,-3.076200e+01,-4.638700e+01,8.134800e+01,2.112300e+02,6.044900e+01
-9.473000e+00,-5.598630e+02,5.469000e+00,-4.619100e+01,-2.021500e+01,1.552700e+01,4.824200e+01,4.746100e+01,4.287100e+01,2.705100e+01,1.923800e+01,-3.154300e+02,-1.240200e+01,-9.287100e+01,-4.541000e+01,-7.138700e+01,6.455100e+01,1.942380e+02,4.335900e+01
-3.613000e+00,-5.461910e+02,1.533200e+01,-2.558600e+01,-1.015600e+01,4.199000e+00,6.269500e+01,6.386700e+01,5.371100e+01,4.189500e+01,2.705100e+01,-3.008790e+02,-6.055000e+00,-7.402300e+01,-3.085900e+01,-4.707000e+01,7.509800e+01,2.078120e+02,6.005900e+01
1.796900e+01,-5.154300e+02,3.945300e+01,9.375000e+00,4.688000e+00,-9.668000e+00,8.281200e+01,8.593700e+01,6.484400e+01,6.269500e+01,4.824200e+01,-2.953120e+02,-5.762000e+00,-5.400400e+01,-7.129000e+00,-2.177700e+01,9.531200e+01,2.315430e+02,8.398400e+01
3.896500e+01,-4.887700e+02,6.152300e+01,2.421900e+01,1.806600e+01,-1.933600e+01,9.873000e+01,1.051760e+02,6.982400e+01,7.988300e+01,7.226600e+01,-2.704100e+02,-3.906000e+00,-2.822300e+01,1.982400e+01,-6.543000e+00,1.096680e+02,2.508790e+02,1.013670e+02
5.068400e+01,-4.661130e+02,6.464800e+01,3.330100e+01,1.923800e+01,-1.923800e+01,1.068360e+02,1.214840e+02,7.617200e+01,9.775400e+01,8.388700e+01,-2.289060e+02,-9.863000e+00,-1.758000e+00,3.486300e+01,1.064500e+01,1.151370e+02,2.595700e+02,1.152340e+02
6.240200e+01,-4.361330e+02,7.978500e+01,6.787100e+01,2.334000e+01,-2.490200e+01,1.170900e+02,1.419920e+02,8.183600e+01,1.162110e+02,8.779300e+01,-2.094730e+02,-2.685500e+01,1.464800e+01,4.189500e+01,3.291000e+01,1.318360e+02,2.758790e+02,1.335940e+02
4.287100e+01,-4.610350e+02,6.084000e+01,5.283200e+01,6.152000e+00,-1.084000e+01,9.677700e+01,1.228520e+02,6.669900e+01,9.736300e+01,6.757800e+01,-2.690430e+02,-3.007800e+01,-1.210900e+01,1.669900e+01,8.301000e+00,1.146480e+02,2.572270e+02,1.115230e+02
2.529300e+01,-4.893550e+02,4.091800e+01,1.591800e+01,-7.617000e+00,3.320000e+00,7.851600e+01,1.040040e+02,5.927700e+01,7.919900e+01,5.029300e+01,-2.559570e+02,-2.353500e+01,-2.109400e+01,-4.980000e+00,-6.836000e+00,9.628900e+01,2.350590e+02,9.082000e+01
1.191400e+01,-5.125000e+02,2.460900e+01,-2.441000e+00,-1.689500e+01,1.445300e+01,6.406300e+01,8.613300e+01,5.566400e+01,6.259800e+01,3.554700e+01,-2.570310e+02,-2.236300e+01,-4.199200e+01,-2.392600e+01,-2.207000e+01,8.535200e+01,2.185550e+02,7.470700e+01
9.277000e+00,-5.283200e+02,1.962900e+01,-1.259800e+01,-1.484400e+01,1.386700e+01,6.201200e+01,7.109400e+01,5.664100e+01,4.980500e+01,3.330100e+01,-2.868160e+02,-1.298800e+01,-6.123000e+01,-2.568400e+01,-3.779300e+01,8.271500e+01,2.134770e+02,6.484400e+01
-5.664000e+00,-5.520510e+02,1.367000e+00,-3.427700e+01,-2.558600e+01,2.109400e+01,4.150400e+01,4.443400e+01,4.013700e+01,2.617200e+01,1.689500e+01,-3.243160e+02,-6.152000e+00,-9.013700e+01,-4.404300e+01,-6.474600e+01,6.806600e+01,1.945310e+02,4.130900e+01
5.469000e+00,-5.302730e+02,1.289100e+01,-1.201200e+01,-1.738300e+01,1.035200e+01,4.843800e+01,5.664100e+01,4.296900e+01,3.916000e+01,2.675800e+01,-3.121090e+02,-1.455100e+01,-5.947300e+01,-3.779300e+01,-4.443400e+01,8.125000e+01,2.074220e+02,5.459000e+01
2.929700e+01,-4.988280e+02,3.935500e+01,1.357400e+01,7.810000e-01,-5.566000e+00,6.962900e+01,7.714800e+01,5.273400e+01,5.830100e+01,5.039100e+01,-2.796870e+02,-2.880900e+01,-4.248000e+01,-1.416000e+01,-2.089800e+01,1.017580e+02,2.326170e+02,7.675800e+01
4.638700e+01,-4.766600e+02,5.908200e+01,3.535200e+01,1.123000e+01,-1.328100e+01,8.398400e+01,9.150400e+01,5.830100e+01,6.962900e+01,6.982400e+01,-2.607420e+02,-2.275400e+01,-4.257800e+01,1.367000e+00,-8.496000e+00,1.158200e+02,2.510740e+02,9.238300e+01
4.902300e+01,-4.639650e+02,6.318400e+01,4.414100e+01,8.398000e+00,-1.044900e+01,8.457000e+01,1.051760e+02,5.732400e+01,8.076200e+01,7.470700e+01,-2.293950e+02,-2.070300e+01,-2.314500e+01,4.980000e+00,1.044900e+01,1.175780e+02,2.565430e+02,1.014650e+02
6.503900e+01,-4.351560e+02,8.125000e+01,7.382800e+01,1.757800e+01,-2.050800e+01,100,1.240230e+02,6.777300e+01,1.032230e+02,8.769500e+01,-1.993160e+02,-2.724600e+01,1.728500e+01,3.066400e+01,3.476600e+01,1.343750e+02,2.747070e+02,1.208980e+02
5.976600e+01,-4.509770e+02,7.695300e+01,5.537100e+01,1.044900e+01,-1.572300e+01,9.091800e+01,1.026370e+02,5.625000e+01,8.242200e+01,7.753900e+01,-2.174800e+02,-2.617200e+01,6.934000e+00,2.636700e+01,5.078000e+00,1.237300e+02,2.604490e+02,1.013670e+02
4.082000e+01,-4.791020e+02,4.843800e+01,3.242200e+01,-8.008000e+00,4.004000e+00,6.738300e+01,8.046900e+01,4.121100e+01,5.927700e+01,5.761700e+01,-2.440430e+02,-2.480500e+01,-1.298800e+01,-1.084000e+01,-2.099600e+01,1.058590e+02,2.363280e+02,7.636700e+01
2.207000e+01,-5.035160e+02,2.607400e+01,1.337900e+01,-2.089800e+01,1.982400e+01,5.136700e+01,6.484400e+01,3.798800e+01,4.199200e+01,4.003900e+01,-2.712890e+02,-1.914100e+01,-4.648400e+01,-3.408200e+01,-3.164100e+01,9.248000e+01,2.178710e+02,6.015600e+01
1.679700e+01,-5.195310e+02,2.031300e+01,-7.324000e+00,-1.943400e+01,1.904300e+01,4.589800e+01,5.752000e+01,3.525400e+01,2.539100e+01,3.349600e+01,-2.959960e+02,-1.132800e+01,-9.091800e+01,-3.701200e+01,-4.560500e+01,8.730500e+01,2.118160e+02,4.921900e+01
2.344000e+00,-5.454100e+02,4.688000e+00,-2.578100e+01,-2.763700e+01,2.412100e+01,2.900400e+01,2.529300e+01,1.699200e+01,2.441000e+00,1.416000e+01,-3.111330e+02,-2.441000e+00,-9.404300e+01,-4.931600e+01,-7.070300e+01,7.255900e+01,1.929690e+02,2.177700e+01
1.025400e+01,-5.318360e+02,1.953100e+01,-6.445000e+00,-1.591800e+01,1.064500e+01,4.160200e+01,3.857400e+01,2.666000e+01,2.363300e+01,3.203100e+01,-2.815430e+02,-1.250000e+01,-4.785200e+01,-3.574200e+01,-4.716800e+01,8.505900e+01,2.068360e+02,3.750000e+01
3.291000e+01,-4.992190e+02,4.296900e+01,1.572300e+01,1.562000e+00,-6.055000e+00,6.377000e+01,6.826200e+01,4.150400e+01,5.127000e+01,5.878900e+01,-2.666020e+02,-1.201200e+01,-2.294900e+01,-1.689500e+01,-2.412100e+01,1.041990e+02,2.314450e+02,6.425800e+01
5.585900e+01,-4.665040e+02,6.220700e+01,3.994100e+01,1.132800e+01,-1.240200e+01,7.998000e+01,9.238300e+01,4.814500e+01,6.806600e+01,7.978500e+01,-2.415040e+02,-1.191400e+01,-6.348000e+00,-4.395000e+00,-4.980000e+00,1.207030e+02,2.511720e+02,8.271500e+01
5.537100e+01,-4.625000e+02,6.669900e+01,4.365200e+01,1.025400e+01,-1.181600e+01,8.877000e+01,1.074220e+02,5.703100e+01,7.949200e+01,7.998000e+01,-2.302730e+02,-1.972700e+01,-2.051000e+00,5.469000e+00,9.863000e+00,1.194340e+02,2.561520e+02,9.521500e+01
6.845700e+01,-4.378910e+02,8.232400e+01,6.953100e+01,1.826200e+01,-1.943400e+01,1.043950e+02,1.304690e+02,6.884800e+01,1.009770e+02,8.916000e+01,-2.058590e+02,-3.281200e+01,2.226600e+01,2.353500e+01,3.291000e+01,1.333010e+02,2.733400e+02,1.168950e+02
6.064500e+01,-450,6.796900e+01,6.484400e+01,1.953000e+00,-5.859000e+00,7.441400e+01,1.180660e+02,3.671900e+01,8.662100e+01,7.412100e+01,-2.352540e+02,-3.603500e+01,6.250000e+00,-1.950000e-01,1.914100e+01,1.232420e+02,2.568360e+02,9.375000e+01
4.033200e+01,-4.773440e+02,4.570300e+01,3.935500e+01,-1.601600e+01,1.181600e+01,4.814500e+01,9.482400e+01,1.875000e+01,6.445300e+01,5.048800e+01,-2.520510e+02,-3.252000e+01,-1.650400e+01,-2.890600e+01,-4.492000e+00,1.047850e+02,2.324220e+02,6.816400e+01
2.080100e+01,-5.044920e+02,2.617200e+01,2.637000e+00,-25,2.334000e+01,4.169900e+01,7.793000e+01,2.509800e+01,5.156200e+01,3.466800e+01,-2.528320e+02,-2.636700e+01,-3.203100e+01,-4.277300e+01,-2.089800e+01,8.720700e+01,2.148440e+02,5.683600e+01
1.474600e+01,-5.234380e+02,1.914100e+01,-1.308600e+01,-2.187500e+01,2.119100e+01,4.404300e+01,6.386700e+01,3.349600e+01,4.052700e+01,3.437500e+01,-2.829100e+02,-1.650400e+01,-5.253900e+01,-4.209000e+01,-3.818400e+01,8.300800e+01,2.100590e+02,5.097700e+01
-5.273000e+00,-5.539060e+02,2.930000e-01,-3.496100e+01,-3.076200e+01,2.910200e+01,3.085900e+01,3.867200e+01,2.421900e+01,1.474600e+01,1.865200e+01,-3.259770e+02,-6.934000e+00,-8.252000e+01,-5.556600e+01,-6.855500e+01,6.728500e+01,1.917970e+02,2.890600e+01
2.637000e+00,-5.390620e+02,9.473000e+00,-2.480500e+01,-2.275400e+01,1.884800e+01,4.091800e+01,5.253900e+01,3.242200e+01,2.539100e+01,2.578100e+01,-2.920900e+02,-8.105000e+00,-5.966800e+01,-4.853500e+01,-5.078100e+01,7.675800e+01,2.024410e+02,4.267600e+01
2.460900e+01,-5.080080e+02,3.476600e+01,1.465000e+00,-5.371000e+00,2.148000e+00,6.181600e+01,7.734400e+01,4.404300e+01,4.775400e+01,4.863300e+01,-2.619140e+02,-1.474600e+01,-3.291000e+01,-2.587900e+01,-2.587900e+01,9.677700e+01,2.268550e+02,6.806600e+01
4.531200e+01,-4.811520e+02,5.517600e+01,2.558600e+01,4.785000e+00,-6.348000e+00,7.226600e+01,9.716800e+01,4.355500e+01,6.611300e+01,6.933600e+01,-2.517580e+02,-2.470700e+01,-1.777300e+01,-1.416000e+01,-3.223000e+00,1.128910e+02,2.460940e+02,8.457000e+01
4.882800e+01,-4.661130e+02,5.800800e+01,4.257800e+01,1.855000e+00,-2.246000e+00,7.216800e+01,1.085940e+02,3.623000e+01,7.304700e+01,6.894500e+01,-2.392580e+02,-3.085900e+01,-1.181600e+01,-9.375000e+00,9.961000e+00,1.157230e+02,2.508790e+02,9.091800e+01
6.445300e+01,-4.382810e+02,7.236300e+01,7.334000e+01,7.129000e+00,-8.594000e+00,8.359400e+01,1.311520e+02,4.355500e+01,9.257800e+01,7.783200e+01,-2.123050e+02,-4.521500e+01,1.025400e+01,2.344000e+00,2.949200e+01,1.308590e+02,2.674800e+02,1.101560e+02
5.634800e+01,-4.568360e+02,6.054700e+01,5.283200e+01,-2.148000e+00,-2.051000e+00,7.470700e+01,1.179690e+02,3.691400e+01,8.046900e+01,6.757800e+01,-2.333980e+02,-4.345700e+01,-3.906000e+00,-8.008000e+00,7.129000e+00,1.161130e+02,2.537110e+02,9.560500e+01
2.793000e+01,-4.957030e+02,3.642600e+01,1.494100e+01,-1.748000e+01,1.259800e+01,5.849600e+01,9.580100e+01,3.203100e+01,5.908200e+01,4.443400e+01,-2.693360e+02,-3.857400e+01,-3.486300e+01,-2.519500e+01,-1.884800e+01,9.306600e+01,2.297850e+02,7.363300e+01
8.691000e+00,-5.188480e+02,1.669900e+01,8.790000e-01,-2.705100e+01,2.421900e+01,4.697300e+01,7.998000e+01,3.193400e+01,4.580100e+01,2.783200e+01,-2.819340e+02,-3.466800e+01,-4.365200e+01,-4.423800e+01,-2.871100e+01,8.027300e+01,2.126950e+02,5.918000e+01
5.176000e+00,-5.308590e+02,1.015600e+01,-5.078000e+00,-2.627000e+01,2.451200e+01,4.209000e+01,6.484400e+01,2.968800e+01,3.105500e+01,2.041000e+01,-3.057620e+02,-3.466800e+01,-7.060500e+01,-5.781300e+01,-5.029300e+01,7.861300e+01,2.062500e+02,4.892600e+01
-1.279300e+01,-5.621090e+02,-5.566000e+00,-3.115200e+01,-3.476600e+01,3.076200e+01,2.587900e+01,3.388700e+01,1.435500e+01,1.953000e+00,4.297000e+00,-3.289060e+02,-2.216800e+01,-9.794900e+01,-7.636700e+01,-8.623000e+01,6.123000e+01,1.871090e+02,2.334000e+01
-5.469000e+00,-5.503910e+02,4.980000e+00,-2.724600e+01,-2.451200e+01,1.923800e+01,3.828100e+01,4.267600e+01,2.060500e+01,1.474600e+01,1.064500e+01,-3.172850e+02,-1.377000e+01,-9.013700e+01,-5.859400e+01,-6.552700e+01,6.806600e+01,1.966800e+02,3.623000e+01
1.103500e+01,-5.210940e+02,1.806600e+01,-5.176000e+00,-9.863000e+00,4.297000e+00,6.230500e+01,7.421900e+01,3.544900e+01,4.384800e+01,3.681600e+01,-2.887700e+02,-1.435500e+01,-8.193400e+01,-3.330100e+01,-3.271500e+01,8.437500e+01,2.203130e+02,6.523400e+01
3.369100e+01,-4.929690e+02,4.326200e+01,1.835900e+01,4.199000e+00,-6.641000e+00,8.164100e+01,9.804700e+01,4.658200e+01,6.455100e+01,6.347700e+01,-2.727540e+02,-2.685500e+01,-3.183600e+01,-1.435500e+01,-6.836000e+00,1.024410e+02,2.428710e+02,8.632800e+01
4.433600e+01,-4.721680e+02,5.849600e+01,2.910200e+01,7.813000e+00,-7.813000e+00,8.554700e+01,1.088870e+02,4.531200e+01,7.627000e+01,7.587900e+01,-2.207030e+02,-2.939500e+01,1.689500e+01,-1.953000e+00,1.298800e+01,1.100590e+02,2.520510e+02,9.482400e+01
5.693400e+01,-4.458980e+02,7.177700e+01,6.318400e+01,1.347700e+01,-1.484400e+01,9.648400e+01,1.300780e+02,5.048800e+01,9.472700e+01,8.252000e+01,-2.093750e+02,-3.994100e+01,2.783200e+01,1.611300e+01,3.330100e+01,1.249020e+02,2.693360e+02,1.138670e+02
4.541000e+01,-4.629880e+02,5.888700e+01,5.224600e+01,2.246000e+00,-5.762000e+00,8.378900e+01,1.136720e+02,3.759800e+01,7.558600e+01,6.982400e+01,-2.537110e+02,-4.199200e+01,-6.445000e+00,1.855000e+00,5.078000e+00,1.115230e+02,2.550780e+02,9.638700e+01
2.177700e+01,-4.943360e+02,3.388700e+01,2.402300e+01,-1.240200e+01,9.180000e+00,7.226600e+01,8.798800e+01,3.427700e+01,5.136700e+01,4.707000e+01,-2.619140e+02,-3.750000e+01,-2.802700e+01,-1.084000e+01,-2.607400e+01,8.974600e+01,2.307620e+02,7.314500e+01
5.762000e+00,-5.185550e+02,1.474600e+01,-1.074000e+00,-2.363300e+01,2.236300e+01,5.830100e+01,7.246100e+01,3.261700e+01,3.877000e+01,25,-2.699220e+02,-3.632800e+01,-4.121100e+01,-3.828100e+01,-4.023400e+01,7.558600e+01,2.125980e+02,5.791000e+01
4.883000e+00,-5.300780e+02,1.064500e+01,-1.445300e+01,-2.236300e+01,2.177700e+01,5.234400e+01,6.298800e+01,3.232400e+01,3.212900e+01,2.109400e+01,-2.836910e+02,-2.949200e+01,-5.683600e+01,-5.878900e+01,-4.814500e+01,7.548800e+01,2.074220e+02,5.048800e+01
-1.259800e+01,-5.618160e+02,-5.176000e+00,-4.375000e+01,-2.998000e+01,2.666000e+01,3.730500e+01,3.837900e+01,2.480500e+01,9.766000e+00,5.860000e-01,-3.276370e+02,-2.841800e+01,-9.082000e+01,-7.714800e+01,-7.558600e+01,5.986300e+01,1.894530e+02,2.890600e+01
-9.766000e+00,-5.545900e+02,1.855000e+00,-3.603500e+01,-2.236300e+01,1.640600e+01,4.589800e+01,4.423800e+01,3.320300e+01,1.582000e+01,7.813000e+00,-3.164060e+02,-2.724600e+01,-8.125000e+01,-6.181600e+01,-6.455100e+01,6.689500e+01,1.983400e+02,3.945300e+01
1.406200e+01,-5.229490e+02,2.763700e+01,-7.227000e+00,-6.250000e+00,9.770000e-01,6.328100e+01,6.757800e+01,3.486300e+01,3.671900e+01,3.398400e+01,-2.862300e+02,-2.597700e+01,-5.068400e+01,-3.798800e+01,-3.310500e+01,8.886700e+01,2.232420e+02,6.181600e+01
3.769500e+01,-4.929690e+02,5.322300e+01,1.904300e+01,6.641000e+00,-9.473000e+00,7.597700e+01,8.916000e+01,3.496100e+01,5.683600e+01,5.918000e+01,-2.695310e+02,-2.558600e+01,-2.832000e+01,-1.630900e+01,-1.084000e+01,1.083980e+02,2.447270e+02,7.949200e+01
4.082000e+01,-4.786130e+02,5.791000e+01,3.613300e+01,6.250000e+00,-7.129000e+00,8.085900e+01,1.030270e+02,3.867200e+01,6.835900e+01,6.289100e+01,-2.648440e+02,-3.027300e+01,-1.816400e+01,-4.590000e+00,4.880000e-01,1.119140e+02,2.512700e+02,8.955100e+01
5.459000e+01,-4.488280e+02,6.738300e+01,7.168000e+01,8.984000e+00,-1.162100e+01,9.160200e+01,1.255860e+02,4.472700e+01,8.740200e+01,7.822300e+01,-2.372070e+02,-4.179700e+01,-5.859000e+00,9.473000e+00,2.050800e+01,1.266600e+02,2.678710e+02,1.097660e+02
4.589800e+01,-4.673830e+02,5.703100e+01,5.400400e+01,-3.516000e+00,-2.734000e+00,7.597700e+01,1.103520e+02,3.105500e+01,7.031200e+01,6.650400e+01,-2.677730e+02,-4.648400e+01,-1.845700e+01,-8.594000e+00,-2.930000e+00,1.139650e+02,2.547850e+02,9.287100e+01
3.398400e+01,-4.901370e+02,4.101600e+01,1.503900e+01,-1.250000e+01,7.910000e+00,6.279300e+01,9.013700e+01,2.832000e+01,5.546900e+01,5.429700e+01,-2.507810e+02,-3.212900e+01,-1.552700e+01,-1.953100e+01,-2.050800e+01,9.746100e+01,2.351560e+02,7.431600e+01
1.044900e+01,-5.177730e+02,2.002000e+01,-5.078000e+00,-2.744100e+01,2.490200e+01,4.023400e+01,7.216800e+01,2.138700e+01,4.111300e+01,2.832000e+01,-2.711910e+02,-3.203100e+01,-4.101600e+01,-4.882800e+01,-3.056600e+01,8.173800e+01,2.140630e+02,5.576200e+01
6.543000e+00,-5.318360e+02,1.738300e+01,-1.357400e+01,-2.226600e+01,2.060500e+01,4.404300e+01,5.986300e+01,3.310500e+01,3.164100e+01,2.187500e+01,-2.849610e+02,-2.421900e+01,-4.941400e+01,-5.058600e+01,-3.515600e+01,8.115200e+01,2.113280e+02,5.117200e+01
-8.789000e+00,-5.632810e+02,1.953000e+00,-4.306600e+01,-2.627000e+01,2.255900e+01,3.837900e+01,3.300800e+01,3.037100e+01,8.496000e+00,1.318400e+01,-3.253910e+02,-9.180000e+00,-8.193400e+01,-5.693400e+01,-6.884800e+01,6.503900e+01,1.948240e+02,3.281200e+01
-5.078000e+00,-5.561520e+02,6.543000e+00,-3.544900e+01,-2.109400e+01,1.425800e+01,4.502000e+01,3.955100e+01,3.476600e+01,1.533200e+01,2.080100e+01,-3.214840e+02,-7.617000e+00,-8.037100e+01,-4.677700e+01,-6.552700e+01,7.060500e+01,2.006840e+02,4.003900e+01
1.982400e+01,-5.195310e+02,2.978500e+01,-1.758000e+00,-5.176000e+00,9.800000e-02,5.908200e+01,6.191400e+01,3.554700e+01,3.515600e+01,4.726600e+01,-2.865230e+02,-1.054700e+01,-5.849600e+01,-2.275400e+01,-3.877000e+01,9.365200e+01,2.259770e+02,6.044900e+01
3.877000e+01,-4.928710e+02,4.941400e+01,2.519500e+01,4.590000e+00,-7.324000e+00,6.865200e+01,7.919900e+01,3.222700e+01,4.970700e+01,6.318400e+01,-2.666990e+02,-1.914100e+01,-5.195300e+01,-1.230500e+01,-2.070300e+01,1.099610e+02,2.454100e+02,7.470700e+01
4.570300e+01,-4.756840e+02,5.722700e+01,4.169900e+01,3.711000e+00,-7.031000e+00,7.011700e+01,9.257800e+01,2.919900e+01,6.210900e+01,6.396500e+01,-2.683590e+02,-2.578100e+01,-3.017600e+01,-1.015600e+01,-6.836000e+00,1.148440e+02,2.525390e+02,8.310500e+01
6.621100e+01,-4.387700e+02,7.871100e+01,7.539100e+01,1.503900e+01,-1.904300e+01,9.013700e+01,1.183590e+02,4.570300e+01,8.710900e+01,8.544900e+01,-2.326170e+02,-3.759800e+01,1.699200e+01,1.503900e+01,1.845700e+01,1.337890e+02,2.716800e+02,1.075200e+02
5.878900e+01,-4.549800e+02,7.021500e+01,5.449200e+01,5.664000e+00,-1.191400e+01,7.949200e+01,1.082030e+02,3.701200e+01,7.656300e+01,8.007800e+01,-2.291020e+02,-4.072300e+01,8.984000e+00,6.348000e+00,9.180000e+00,1.229490e+02,2.603520e+02,9.423800e+01
3.955100e+01,-4.865230e+02,4.746100e+01,2.490200e+01,-8.984000e+00,3.711000e+00,6.103500e+01,8.252000e+01,2.773400e+01,5.214800e+01,5.810500e+01,-2.530270e+02,-3.359400e+01,-2.353500e+01,-1.347700e+01,-1.464800e+01,1.037110e+02,2.370120e+02,6.972700e+01
1.777300e+01,-5.128910e+02,2.451200e+01,8.594000e+00,-2.255900e+01,2.089800e+01,4.550800e+01,6.416000e+01,2.363300e+01,3.408200e+01,3.164100e+01,-2.727540e+02,-3.193400e+01,-4.062500e+01,-3.505900e+01,-3.632800e+01,8.867200e+01,2.171870e+02,5.214800e+01
1.503900e+01,-5.244140e+02,2.080100e+01,6.840000e-01,-2.363300e+01,2.285200e+01,3.798800e+01,5.068400e+01,2.060500e+01,2.168000e+01,2.480500e+01,-3.051760e+02,-2.802700e+01,-8.681600e+01,-5.195300e+01,-5.595700e+01,8.652300e+01,2.100590e+02,4.101600e+01
2.148000e+00,-5.506840e+02,4.590000e+00,-2.910200e+01,-2.861300e+01,2.568400e+01,2.851600e+01,3.164100e+01,1.377000e+01,4.199000e+00,1.689500e+01,-3.358400e+02,-1.044900e+01,-1.028320e+02,-6.171900e+01,-75,7.128900e+01,1.939450e+02,2.197300e+01
8.887000e+00,-5.412110e+02,1.093700e+01,-2.636700e+01,-2.080100e+01,1.464800e+01,3.837900e+01,3.769500e+01,2.275400e+01,1.425800e+01,2.421900e+01,-2.956050e+02,-4.883000e+00,-6.103500e+01,-5.302700e+01,-5.517600e+01,7.851600e+01,2.016600e+02,3.291000e+01
2.402300e+01,-5.150390e+02,3.076200e+01,9.863000e+00,-6.641000e+00,1.172000e+00,5.732400e+01,6.035200e+01,3.261700e+01,3.242200e+01,4.121100e+01,-2.918950e+02,-1.572300e+01,-4.668000e+01,-3.388700e+01,-3.408200e+01,9.736300e+01,2.248050e+02,5.605500e+01
4.502000e+01,-4.883790e+02,5.332000e+01,3.242200e+01,7.715000e+00,-1.054700e+01,7.421900e+01,8.623000e+01,4.052700e+01,5.419900e+01,6.113300e+01,-2.806640e+02,-2.109400e+01,-2.226600e+01,-1.377000e+01,-1.503900e+01,1.136720e+02,2.465820e+02,7.734400e+01
5.605500e+01,-4.697270e+02,6.591800e+01,3.222700e+01,1.044900e+01,-1.230500e+01,7.763700e+01,1.036130e+02,4.033200e+01,7.060500e+01,6.865200e+01,-2.361330e+02,-3.593800e+01,1.758000e+00,-8.008000e+00,8.790000e-01,1.175780e+02,2.542970e+02,8.925800e+01
6.767600e+01,-4.428710e+02,7.871100e+01,6.298800e+01,1.650400e+01,-1.787100e+01,9.062500e+01,1.290040e+02,4.863300e+01,9.267600e+01,8.115200e+01,-2.096680e+02,-5.810500e+01,2.587900e+01,8.789000e+00,2.919900e+01,1.314450e+02,2.715820e+02,1.109380e+02
5.693400e+01,-4.570310e+02,6.933600e+01,5.302700e+01,7.129000e+00,-1.191400e+01,8.173800e+01,1.199220e+02,4.062500e+01,8.125000e+01,6.972700e+01,-2.371090e+02,-5.019500e+01,7.227000e+00,-2.148000e+00,1.621100e+01,1.203120e+02,2.610350e+02,9.882800e+01
3.681600e+01,-4.862300e+02,4.794900e+01,2.763700e+01,-9.082000e+00,6.055000e+00,6.191400e+01,9.599600e+01,2.900400e+01,5.781300e+01,4.638700e+01,-2.566410e+02,-3.681600e+01,-1.630900e+01,-2.734400e+01,-1.835900e+01,1.018550e+02,2.374020e+02,7.441400e+01
1.513700e+01,-5.158200e+02,2.714800e+01,5.566000e+00,-2.314500e+01,2.080100e+01,4.462900e+01,7.783200e+01,2.168000e+01,4.101600e+01,1.845700e+01,-2.797850e+02,-3.427700e+01,-4.003900e+01,-4.658200e+01,-3.457000e+01,8.544900e+01,2.165040e+02,5.634800e+01
1.132800e+01,-5.264650e+02,1.630900e+01,9.800000e-02,-2.412100e+01,2.216800e+01,4.062500e+01,6.757800e+01,2.275400e+01,3.193400e+01,1.992200e+01,-2.942380e+02,-2.343800e+01,-6.044900e+01,-5.107400e+01,-4.228500e+01,8.418000e+01,2.114260e+02,4.853500e+01
-3.516000e+00,-5.578130e+02,-6.840000e-01,-3.134800e+01,-2.832000e+01,2.578100e+01,3.017600e+01,4.492200e+01,1.630900e+01,1.396500e+01,1.494100e+01,-3.313480e+02,-1.074200e+01,-8.837900e+01,-5.996100e+01,-6.562500e+01,6.943400e+01,1.958980e+02,2.998000e+01
-2.051000e+00,-5.575200e+02,4.199000e+00,-2.919900e+01,-2.285200e+01,1.816400e+01,3.710900e+01,4.834000e+01,2.392600e+01,1.865200e+01,1.972700e+01,-3.184570e+02,-1.162100e+01,-7.675800e+01,-5.810500e+01,-5.908200e+01,7.236300e+01,2.008790e+02,3.847700e+01
1.806600e+01,-5.278320e+02,2.656300e+01,-6.250000e+00,-6.445000e+00,1.562000e+00,6.123000e+01,7.392600e+01,4.072300e+01,4.013700e+01,3.759800e+01,-2.927730e+02,-1.923800e+01,-6.318400e+01,-3.769500e+01,-3.623000e+01,9.130900e+01,2.250980e+02,6.572300e+01
3.505900e+01,-5.015620e+02,4.570300e+01,1.875000e+01,4.297000e+00,-7.520000e+00,7.529300e+01,9.472700e+01,4.638700e+01,5.419900e+01,5.039100e+01,-3.028320e+02,-2.919900e+01,-5.820300e+01,-2.060500e+01,-2.666000e+01,1.057620e+02,2.451170e+02,8.320300e+01
5.039100e+01,-4.742190e+02,5.918000e+01,4.502000e+01,9.473000e+00,-1.093700e+01,7.871100e+01,1.093750e+02,4.335900e+01,6.953100e+01,6.445300e+01,-2.680660e+02,-3.212900e+01,-2.051000e+00,-9.180000e+00,-2.734000e+00,1.175780e+02,2.560550e+02,9.355500e+01
6.855500e+01,-4.428710e+02,8.242200e+01,6.806600e+01,1.953100e+01,-2.070300e+01,9.111300e+01,1.358400e+02,4.716800e+01,9.550800e+01,8.261700e+01,-2.051760e+02,-5.507800e+01,4.043000e+01,4.883000e+00,3.154300e+01,1.360350e+02,2.750980e+02,1.147460e+02
6.240200e+01,-4.520510e+02,7.529300e+01,5.752000e+01,1.220700e+01,-1.513700e+01,8.427700e+01,1.300780e+02,3.779300e+01,8.916000e+01,7.695300e+01,-2.206050e+02,-5.429700e+01,1.425800e+01,-1.660000e+00,1.845700e+01,1.289060e+02,2.680660e+02,1.050780e+02
4.199200e+01,-4.861330e+02,5.087900e+01,2.959000e+01,-4.004000e+00,2.930000e-01,6.689500e+01,1.043950e+02,3.027300e+01,6.503900e+01,5.498000e+01,-2.636720e+02,-3.574200e+01,-2.148400e+01,-2.207000e+01,-1.064500e+01,1.071290e+02,2.438480e+02,8.095700e+01
1.972700e+01,-5.140630e+02,2.587900e+01,1.093700e+01,-1.962900e+01,1.660200e+01,4.687500e+01,8.212900e+01,1.904300e+01,4.433600e+01,3.252000e+01,-2.946290e+02,-2.617200e+01,-4.384800e+01,-4.316400e+01,-3.339800e+01,9.101600e+01,2.221680e+02,6.074200e+01
9.180000e+00,-5.308590e+02,1.503900e+01,1.172000e+00,-2.158200e+01,2.011700e+01,4.160200e+01,6.835900e+01,2.031300e+01,3.203100e+01,2.197300e+01,-3.081050e+02,-2.402300e+01,-5.937500e+01,-5.605500e+01,-4.658200e+01,8.662100e+01,2.151370e+02,5.136700e+01
0,-5.562500e+02,3.809000e+00,-2.714800e+01,-2.197300e+01,1.855500e+01,4.013700e+01,4.589800e+01,2.373000e+01,1.210900e+01,1.308600e+01,-3.352540e+02,-1.064500e+01,-8.486300e+01,-5.957000e+01,-6.943400e+01,7.314500e+01,2.008790e+02,3.544900e+01
2.539000e+00,-5.513670e+02,6.934000e+00,-3.125000e+01,-1.572300e+01,1.142600e+01,4.619100e+01,4.941400e+01,3.017600e+01,2.294900e+01,1.972700e+01,-3.172850e+02,-7.520000e+00,-8.193400e+01,-4.970700e+01,-5.878900e+01,7.480500e+01,2.047850e+02,4.355500e+01
2.031300e+01,-5.205080e+02,2.978500e+01,-6.250000e+00,-4.880000e-01,-3.125000e+00,6.269500e+01,7.646500e+01,3.818400e+01,4.589800e+01,4.228500e+01,-2.831050e+02,-1.279300e+01,-6.044900e+01,-2.529300e+01,-3.427700e+01,9.423800e+01,2.283200e+02,6.699200e+01
4.482400e+01,-4.905270e+02,5.673800e+01,2.070300e+01,1.543000e+01,-1.796900e+01,8.193400e+01,1.010740e+02,4.550800e+01,6.621100e+01,6.543000e+01,-2.621090e+02,-1.845700e+01,-1.699200e+01,-8.203000e+00,-9.570000e+00,1.135740e+02,2.514650e+02,8.789100e+01
4.794900e+01,-4.796880e+02,6.240200e+01,3.466800e+01,1.494100e+01,-1.709000e+01,8.701200e+01,1.132810e+02,4.521500e+01,7.597700e+01,6.826200e+01,-2.532230e+02,-3.291000e+01,-1.132800e+01,-1.172000e+00,4.688000e+00,1.160160e+02,2.582030e+02,9.755900e+01
6.005900e+01,-4.542970e+02,7.705100e+01,5.693400e+01,1.943400e+01,-2.050800e+01,9.638700e+01,1.379880e+02,5.019500e+01,9.541000e+01,7.744100e+01,-2.372070e+02,-4.091800e+01,1.074000e+00,8.398000e+00,2.910200e+01,1.282230e+02,2.744140e+02,1.171870e+02
5.869100e+01,-4.592770e+02,7.558600e+01,5.566400e+01,1.572300e+01,-1.933600e+01,9.472700e+01,1.276370e+02,4.951200e+01,8.984400e+01,7.646500e+01,-2.394530e+02,-3.486300e+01,1.445300e+01,7.324000e+00,2.021500e+01,1.250980e+02,2.703130e+02,1.098630e+02
3.457000e+01,-4.939450e+02,4.599600e+01,3.164100e+01,-3.223000e+00,-9.770000e-01,7.285200e+01,1.012700e+02,3.916000e+01,6.279300e+01,5.361300e+01,-2.777340e+02,-3.300800e+01,-1.699200e+01,-1.806600e+01,-1.191400e+01,1.032230e+02,2.448240e+02,8.359400e+01
1.669900e+01,-5.182620e+02,2.949200e+01,9.800000e-02,-1.269500e+01,9.961000e+00,5.986300e+01,8.955100e+01,3.857400e+01,5.156200e+01,3.681600e+01,-2.723630e+02,-2.646500e+01,-3.056600e+01,-3.789100e+01,-2.382800e+01,8.759800e+01,2.265620e+02,6.943400e+01
1.269500e+01,-5.291990e+02,2.548800e+01,-1.396500e+01,-9.668000e+00,9.766000e+00,5.986300e+01,7.783200e+01,3.945300e+01,4.248000e+01,3.183600e+01,-2.826170e+02,-2.158200e+01,-4.394500e+01,-4.121100e+01,-3.525400e+01,8.476600e+01,2.200200e+02,6.162100e+01
4.590000e+00,-5.515630e+02,1.005900e+01,-3.623000e+01,-1.689500e+01,1.396500e+01,4.218800e+01,5.205100e+01,2.197300e+01,1.787100e+01,1.972700e+01,-3.122070e+02,-1.455100e+01,-7.187500e+01,-5.595700e+01,-6.191400e+01,7.363300e+01,2.038090e+02,3.769500e+01
1.465000e+00,-5.561520e+02,7.910000e+00,-3.496100e+01,-1.689500e+01,1.054700e+01,4.179700e+01,5.468800e+01,2.207000e+01,2.128900e+01,1.552700e+01,-3.083010e+02,-6.934000e+00,-6.640600e+01,-5.175800e+01,-5.517600e+01,7.402300e+01,2.046880e+02,4.052700e+01
1.796900e+01,-5.299800e+02,3.232400e+01,-7.031000e+00,-1.950000e-01,-5.469000e+00,6.484400e+01,8.007800e+01,3.613300e+01,4.531200e+01,3.945300e+01,-2.866210e+02,-7.422000e+00,-4.013700e+01,-2.587900e+01,-2.812500e+01,9.414100e+01,2.287110e+02,6.679700e+01
4.091800e+01,-5.004880e+02,5.673800e+01,1.611300e+01,1.552700e+01,-1.835900e+01,8.916000e+01,1.004880e+02,5.380900e+01,6.406300e+01,5.927700e+01,-2.761720e+02,-1.318400e+01,-2.431600e+01,1.953000e+00,-1.279300e+01,1.115230e+02,2.510740e+02,8.925800e+01
5.224600e+01,-4.807620e+02,6.562500e+01,3.339800e+01,1.552700e+01,-1.679700e+01,9.179700e+01,1.139650e+02,5.605500e+01,7.412100e+01,7.187500e+01,-2.666990e+02,-2.353500e+01,-1.377000e+01,-4.880000e-01,-8.790000e-01,1.190430e+02,2.604490e+02,9.941400e+01
6.679700e+01,-4.511720e+02,7.998000e+01,6.347700e+01,1.992200e+01,-2.285200e+01,1.000980e+02,1.378910e+02,5.957000e+01,9.707000e+01,8.593700e+01,-2.304690e+02,-3.408200e+01,1.552700e+01,1.093700e+01,3.046900e+01,1.344730e+02,2.774410e+02,1.188480e+02
6.513700e+01,-4.528320e+02,7.294900e+01,6.269500e+01,1.113300e+01,-1.650400e+01,9.101600e+01,1.329100e+02,4.580100e+01,9.052700e+01,8.193400e+01,-2.577150e+02,-3.945300e+01,-9.570000e+00,9.961000e+00,2.002000e+01,1.303710e+02,2.713870e+02,1.101560e+02
4.580100e+01,-4.826170e+02,4.570300e+01,3.974600e+01,-8.789000e+00,3.711000e+00,6.455100e+01,1.066410e+02,2.968800e+01,5.976600e+01,5.263700e+01,-2.799800e+02,-4.453100e+01,-2.695300e+01,-2.363300e+01,-9.961000e+00,1.088870e+02,2.451170e+02,8.203100e+01
2.734400e+01,-5.081050e+02,3.085900e+01,1.435500e+01,-1.650400e+01,1.347700e+01,5.488300e+01,8.886700e+01,3.369100e+01,4.433600e+01,3.525400e+01,-2.917970e+02,-3.056600e+01,-4.453100e+01,-3.642600e+01,-2.548800e+01,9.570300e+01,2.287110e+02,6.748000e+01
1.884800e+01,-5.219730e+02,2.509800e+01,7.324000e+00,-1.757800e+01,1.621100e+01,4.599600e+01,7.031200e+01,3.037100e+01,3.476600e+01,2.324200e+01,-3.118160e+02,-2.050800e+01,-5.722700e+01,-4.609400e+01,-4.033200e+01,9.306600e+01,2.207030e+02,5.498000e+01
8.301000e+00,-5.482420e+02,1.337900e+01,-1.474600e+01,-2.119100e+01,1.914100e+01,3.486300e+01,4.257800e+01,2.509800e+01,1.660200e+01,2.070300e+01,-3.460940e+02,-1.474600e+01,-8.857400e+01,-5.986300e+01,-6.953100e+01,8.212900e+01,2.066410e+02,3.574200e+01
6.934000e+00,-5.478520e+02,8.203000e+00,-1.845700e+01,-2.060500e+01,1.543000e+01,3.847700e+01,4.043000e+01,2.861300e+01,1.640600e+01,1.835900e+01,-3.323240e+02,-2.734400e+01,-7.294900e+01,-6.123000e+01,-7.490200e+01,8.203100e+01,2.060550e+02,3.798800e+01
2.812500e+01,-5.179690e+02,3.437500e+01,-7.324000e+00,-1.953000e+00,-3.711000e+00,5.800800e+01,6.816400e+01,3.740200e+01,4.277300e+01,4.043000e+01,-2.749020e+02,-2.158200e+01,-4.453100e+01,-3.623000e+01,-3.466800e+01,9.941400e+01,2.297850e+02,6.210900e+01
5.166000e+01,-4.887700e+02,5.576200e+01,2.656300e+01,1.084000e+01,-1.171900e+01,6.923800e+01,8.847700e+01,3.466800e+01,6.044900e+01,6.582000e+01,-2.725590e+02,-1.406200e+01,-3.457000e+01,-1.396500e+01,-1.005900e+01,1.185550e+02,2.517580e+02,7.822300e+01
5.927700e+01,-4.723630e+02,6.289100e+01,4.277300e+01,1.152300e+01,-1.269500e+01,7.363300e+01,1.004880e+02,3.203100e+01,7.041000e+01,7.294900e+01,-2.518550e+02,-1.826200e+01,-4.297000e+00,-4.688000e+00,7.617000e+00,1.235350e+02,2.596680e+02,8.652300e+01
7.451200e+01,-4.447270e+02,8.193400e+01,6.015600e+01,2.089800e+01,-2.236300e+01,9.062500e+01,1.221680e+02,4.482400e+01,9.277300e+01,8.828100e+01,-2.004880e+02,-2.617200e+01,2.939500e+01,1.826200e+01,3.408200e+01,1.369140e+02,2.764650e+02,1.076170e+02
6.855500e+01,-4.492190e+02,7.959000e+01,6.533200e+01,1.523400e+01,-1.806600e+01,8.671900e+01,1.146480e+02,4.179700e+01,8.349600e+01,8.642600e+01,-2.362300e+02,-3.212900e+01,1.093700e+01,1.767600e+01,1.484400e+01,1.334960e+02,2.725590e+02,1.009770e+02
4.736300e+01,-4.792970e+02,5.546900e+01,3.144500e+01,-8.790000e-01,-3.320000e+00,6.953100e+01,8.935500e+01,3.378900e+01,5.927700e+01,6.269500e+01,-2.635740e+02,-3.046900e+01,-1.835900e+01,-1.367000e+00,-1.279300e+01,1.120120e+02,2.483400e+02,7.617200e+01
2.714800e+01,-5.063480e+02,3.232400e+01,9.570000e+00,-1.611300e+01,1.416000e+01,50,6.709000e+01,2.548800e+01,4.111300e+01,3.916000e+01,-2.769530e+02,-2.919900e+01,-3.730500e+01,-2.998000e+01,-3.505900e+01,9.531200e+01,2.263670e+02,5.664100e+01
2.031300e+01,-5.222660e+02,2.294900e+01,7.810000e-01,-1.699200e+01,1.826200e+01,4.209000e+01,5.468800e+01,2.285200e+01,3.085900e+01,3.125000e+01,-2.873050e+02,-1.787100e+01,-5.127000e+01,-4.384800e+01,-4.726600e+01,9.082000e+01,2.183590e+02,4.648400e+01
3.809000e+00,-5.515630e+02,5.469000e+00,-2.207000e+01,-2.441400e+01,2.255900e+01,3.066400e+01,3.564500e+01,1.552700e+01,8.008000e+00,1.445300e+01,-3.345700e+02,-1.513700e+01,-1.042970e+02,-6.035200e+01,-7.441400e+01,7.529300e+01,2.019530e+02,2.490200e+01
-2.930000e-01,-5.561520e+02,1.270000e+00,-3.613300e+01,-2.421900e+01,1.875000e+01,3.300800e+01,3.730500e+01,2.041000e+01,7.227000e+00,9.766000e+00,-3.294920e+02,-2.021500e+01,-1.072270e+02,-6.367200e+01,-6.835900e+01,7.109400e+01,1.999020e+02,2.675800e+01
2.470700e+01,-5.187500e+02,2.822300e+01,-4.880000e-01,-5.566000e+00,-5.860000e-01,5.380900e+01,6.005900e+01,3.281200e+01,3.320300e+01,3.369100e+01,-2.889650e+02,-2.363300e+01,-3.974600e+01,-3.398400e+01,-3.564500e+01,9.472700e+01,225,5.312500e+01
4.941400e+01,-4.877930e+02,5.634800e+01,3.271500e+01,6.738000e+00,-1.103500e+01,6.396500e+01,8.076200e+01,2.998000e+01,4.941400e+01,5.419900e+01,-2.891600e+02,-3.125000e+01,-1.748000e+01,-2.470700e+01,-1.611300e+01,1.160160e+02,2.479490e+02,7.080100e+01
5.283200e+01,-4.785160e+02,6.220700e+01,3.837900e+01,9.473000e+00,-1.142600e+01,7.128900e+01,1.014650e+02,3.095700e+01,6.494100e+01,6.533200e+01,-2.485350e+02,-3.544900e+01,-2.734000e+00,-1.025400e+01,-5.860000e-01,1.188480e+02,2.567380e+02,8.466800e+01
