FP1,FP2,F3,F4,C3,C4,P3,P4,O1,O2,F7, F8,T3,T4,T5,T6,FZ,CZ,PZ
4.238300e+01,-8.494140e+02,5.146500e+01,-8.408200e+01,1.279300e+01,-1.679700e+01,3.857400e+01,-2.089800e+01,4.863300e+01,3.193400e+01,5.722700e+01,-3.799800e+02,-4.824200e+01,-3.012700e+02,-1.182620e+02,9.375000e+00,1.497070e+02,6.934000e+00,6.777300e+01
3.662100e+01,-8.633790e+02,2.812500e+01,-9.726600e+01,1.220700e+01,-1.709000e+01,3.496100e+01,-3.164100e+01,4.902300e+01,1.982400e+01,5.498000e+01,-3.932620e+02,-4.931600e+01,-3.209960e+02,-1.279300e+02,-1.758000e+00,1.444340e+02,-5.860000e-01,5.839800e+01
2.548800e+01,-8.838870e+02,4.688000e+00,-1.145510e+02,6.348000e+00,-1.152300e+01,2.382800e+01,-5.136700e+01,5.019500e+01,2.246000e+00,6.484400e+01,-4.176760e+02,-2.724600e+01,-3.467770e+02,-1.477540e+02,-2.470700e+01,1.327150e+02,-1.640600e+01,4.179700e+01
3.378900e+01,-8.700200e+02,1.054700e+01,-1.044920e+02,1.191400e+01,-1.865200e+01,3.164100e+01,-4.072300e+01,5.341800e+01,1.386700e+01,7.207000e+01,-3.910160e+02,-2.646500e+01,-3.292970e+02,-1.383790e+02,-1.220700e+01,1.418950e+02,-7.715000e+00,5.341800e+01
5.752000e+01,-8.384770e+02,4.150400e+01,-7.265600e+01,2.871100e+01,-3.320300e+01,5.585900e+01,-1.865200e+01,6.679700e+01,3.427700e+01,8.916000e+01,-3.732420e+02,-3.291000e+01,-3.009770e+02,-1.085940e+02,1.386700e+01,1.634770e+02,1.669900e+01,7.832000e+01
7.519500e+01,-8.153320e+02,6.162100e+01,-4.804700e+01,4.121100e+01,-4.335900e+01,7.343700e+01,7.810000e-01,7.236300e+01,4.882800e+01,1.036130e+02,-3.628910e+02,-4.150400e+01,-2.978520e+02,-8.486300e+01,3.261700e+01,1.778320e+02,3.632800e+01,9.570300e+01
7.529300e+01,-8.035160e+02,6.494100e+01,-4.082000e+01,4.521500e+01,-4.638700e+01,7.304700e+01,6.152000e+00,6.298800e+01,5.341800e+01,7.412100e+01,-3.382810e+02,-7.363300e+01,-2.683590e+02,-8.330100e+01,4.218800e+01,1.769530e+02,3.964800e+01,9.863300e+01
9.863300e+01,-7.673830e+02,9.072300e+01,-6.152000e+00,5.009800e+01,-5.273400e+01,8.769500e+01,2.851600e+01,7.519500e+01,7.734400e+01,1.145510e+02,-3.118160e+02,-7.724600e+01,-2.200200e+02,-6.767600e+01,7.480500e+01,1.994140e+02,6.044900e+01,1.207030e+02
8.789100e+01,-7.819340e+02,7.910200e+01,-2.275400e+01,3.574200e+01,-4.355500e+01,7.724600e+01,1.709000e+01,6.787100e+01,6.093700e+01,1.210940e+02,-3.204100e+02,-7.304700e+01,-2.490230e+02,-8.144500e+01,5.380900e+01,1.866210e+02,4.609400e+01,1.054690e+02
6.904300e+01,-8.133790e+02,5.498000e+01,-5.136700e+01,1.650400e+01,-2.304700e+01,6.084000e+01,-4.688000e+00,6.152300e+01,3.984400e+01,1.078120e+02,-3.565430e+02,-5.224600e+01,-2.905270e+02,-1.050780e+02,2.529300e+01,1.676760e+02,2.216800e+01,8.339800e+01
5.595700e+01,-8.342770e+02,3.730500e+01,-7.373000e+01,8.789000e+00,-1.289100e+01,4.912100e+01,-2.373000e+01,6.054700e+01,3.017600e+01,9.580100e+01,-3.496090e+02,-3.730500e+01,-2.822270e+02,-1.300780e+02,1.933600e+01,1.568360e+02,5.273000e+00,6.972700e+01
4.970700e+01,-8.475590e+02,2.900400e+01,-8.662100e+01,1.230500e+01,-1.425800e+01,4.541000e+01,-4.072300e+01,5.742200e+01,1.240200e+01,8.281200e+01,-3.732420e+02,-3.486300e+01,-3.057620e+02,-1.342770e+02,1.953000e+00,1.519530e+02,-1.074000e+00,5.820300e+01
2.587900e+01,-8.850590e+02,2.480500e+01,-1.197270e+02,8.398000e+00,-1.210900e+01,2.978500e+01,-7.021500e+01,4.248000e+01,-1.904300e+01,5.302700e+01,-4.184570e+02,-3.955100e+01,-3.394530e+02,-1.499020e+02,-3.564500e+01,1.314450e+02,-2.158200e+01,3.115200e+01
3.525400e+01,-8.688480e+02,2.793000e+01,-1.010740e+02,2.002000e+01,-2.636700e+01,4.619100e+01,-6.171900e+01,5.498000e+01,-6.445000e+00,6.337900e+01,-3.972660e+02,-2.246100e+01,-3.221680e+02,-1.247070e+02,-2.119100e+01,1.416990e+02,-1.210900e+01,4.433600e+01
6.064500e+01,-8.323240e+02,4.013700e+01,-7.089800e+01,3.242200e+01,-3.798800e+01,7.148400e+01,-2.988300e+01,7.275400e+01,2.470700e+01,9.912100e+01,-3.644530e+02,-2.832000e+01,-2.981450e+02,-9.765600e+01,1.269500e+01,1.636720e+02,1.367200e+01,7.421900e+01
8.134800e+01,-8.052730e+02,6.582000e+01,-4.365200e+01,4.267600e+01,-4.560500e+01,8.437500e+01,-1.064500e+01,75,3.906200e+01,1.220700e+02,-3.591800e+02,-3.837900e+01,-2.851560e+02,-9.062500e+01,3.173800e+01,1.810550e+02,3.349600e+01,9.003900e+01
8.515600e+01,-7.947270e+02,7.695300e+01,-3.730500e+01,4.521500e+01,-4.794900e+01,9.013700e+01,-4.297000e+00,7.207000e+01,4.335900e+01,9.960900e+01,-3.289060e+02,-4.267600e+01,-2.672850e+02,-7.871100e+01,3.984400e+01,1.826170e+02,3.886700e+01,9.589800e+01
9.716800e+01,-7.683590e+02,1.007810e+02,-1.191400e+01,5.830100e+01,-6.103500e+01,1.089840e+02,1.914100e+01,8.593700e+01,6.875000e+01,1.159180e+02,-2.921870e+02,-5.693400e+01,-2.349610e+02,-6.044900e+01,6.953100e+01,1.964840e+02,5.742200e+01,1.180660e+02
9.199200e+01,-7.752930e+02,7.714800e+01,-1.396500e+01,4.492200e+01,-50,1.009770e+02,7.422000e+00,8.037100e+01,5.693400e+01,1.333010e+02,-3.366210e+02,-5.507800e+01,-2.518550e+02,-6.894500e+01,5.136700e+01,1.868160e+02,4.521500e+01,1.047850e+02
7.744100e+01,-8.036130e+02,6.630900e+01,-5.244100e+01,3.203100e+01,-3.818400e+01,7.910200e+01,-2.002000e+01,6.591800e+01,2.910200e+01,1.052730e+02,-3.484370e+02,-5.097700e+01,-2.825200e+02,-9.570300e+01,2.158200e+01,1.673830e+02,2.070300e+01,7.646500e+01
5.459000e+01,-8.293950e+02,3.740200e+01,-6.875000e+01,1.464800e+01,-1.884800e+01,5.517600e+01,-3.642600e+01,5.390600e+01,1.572300e+01,8.271500e+01,-3.678710e+02,-4.687500e+01,-2.819340e+02,-1.229490e+02,9.473000e+00,1.518550e+02,-3.910000e-01,5.615200e+01
5.478500e+01,-8.406250e+02,3.671900e+01,-8.564500e+01,2.099600e+01,-2.441400e+01,5.449200e+01,-5.390600e+01,5.625000e+01,5.273000e+00,9.189500e+01,-3.637700e+02,-2.919900e+01,-3.081050e+02,-1.217770e+02,-3.320000e+00,1.515630e+02,-4.883000e+00,4.736300e+01
3.632800e+01,-8.672850e+02,1.757800e+01,-1.064450e+02,1.572300e+01,-1.943400e+01,4.492200e+01,-8.222700e+01,4.990200e+01,-2.109400e+01,7.402300e+01,-3.967770e+02,-1.933600e+01,-3.544920e+02,-1.339840e+02,-3.574200e+01,1.362300e+02,-2.177700e+01,2.597700e+01
3.134800e+01,-8.675780e+02,1.543000e+01,-9.111300e+01,1.572300e+01,-2.138700e+01,4.599600e+01,-7.929700e+01,4.794900e+01,-2.119100e+01,6.962900e+01,-4.229490e+02,-2.880900e+01,-3.581050e+02,-1.365230e+02,-3.505900e+01,1.377930e+02,-1.855500e+01,3.115200e+01
5.410200e+01,-8.371090e+02,4.443400e+01,-7.187500e+01,3.466800e+01,-3.974600e+01,6.787100e+01,-5.078100e+01,5.986300e+01,7.324000e+00,9.511700e+01,-3.952150e+02,-3.027300e+01,-3.115230e+02,-1.135740e+02,-3.027000e+00,1.580080e+02,7.813000e+00,6.025400e+01
7.568400e+01,-8.068360e+02,7.050800e+01,-5.830100e+01,5.263700e+01,-5.478500e+01,9.472700e+01,-2.490200e+01,7.949200e+01,3.252000e+01,1.169920e+02,-3.537110e+02,-2.910200e+01,-2.739260e+02,-8.515600e+01,2.294900e+01,1.747070e+02,3.154300e+01,8.730500e+01
7.832000e+01,-7.933590e+02,7.773400e+01,-4.326200e+01,4.794900e+01,-5.048800e+01,8.886700e+01,-8.789000e+00,6.962900e+01,3.945300e+01,1.081050e+02,-3.371090e+02,-4.423800e+01,-2.638670e+02,-9.091800e+01,3.330100e+01,1.774410e+02,3.642600e+01,9.355500e+01
9.023400e+01,-7.730470e+02,9.199200e+01,-2.187500e+01,5.166000e+01,-5.634800e+01,9.687500e+01,2.314500e+01,7.519500e+01,6.533200e+01,1.180660e+02,-3.060550e+02,-5.752000e+01,-2.326170e+02,-7.890600e+01,6.884800e+01,1.899410e+02,5.371100e+01,1.166990e+02
7.978500e+01,-7.850590e+02,8.730500e+01,-3.076200e+01,4.218800e+01,-4.794900e+01,8.418000e+01,1.416000e+01,6.152300e+01,5.068400e+01,1.067380e+02,-3.109370e+02,-5.937500e+01,-2.526370e+02,-8.369100e+01,4.912100e+01,1.802730e+02,4.384800e+01,1.036130e+02
5.166000e+01,-8.210940e+02,4.882800e+01,-6.464800e+01,2.812500e+01,-3.300800e+01,6.914100e+01,-1.054700e+01,5.712900e+01,2.793000e+01,8.242200e+01,-3.470700e+02,-7.255900e+01,-2.854490e+02,-1.038090e+02,1.416000e+01,1.542970e+02,1.796900e+01,8.261700e+01
2.675800e+01,-8.524410e+02,1.601600e+01,-8.466800e+01,9.473000e+00,-1.298800e+01,4.873000e+01,-2.636700e+01,5.039100e+01,1.201200e+01,5.205100e+01,-3.871090e+02,-7.568400e+01,-3.409180e+02,-1.368160e+02,-9.961000e+00,1.344730e+02,-4.492000e+00,6.591800e+01
2.763700e+01,-8.623050e+02,1.377000e+01,-8.212900e+01,3.418000e+00,-5.273000e+00,4.052700e+01,-3.183600e+01,4.785200e+01,3.320000e+00,6.494100e+01,-4.308590e+02,-5.654300e+01,-3.444340e+02,-1.513670e+02,-1.757800e+01,1.375980e+02,-7.813000e+00,6.025400e+01
1.709000e+01,-8.864260e+02,1.074200e+01,-1.187500e+02,1.084000e+01,-1.318400e+01,3.183600e+01,-6.210900e+01,3.554700e+01,-2.949200e+01,2.470700e+01,-4.208010e+02,-6.445300e+01,-3.357420e+02,-1.614260e+02,-4.326200e+01,1.229490e+02,-2.304700e+01,3.681600e+01
8.984000e+00,-8.884770e+02,9.180000e+00,-1.275390e+02,1.318400e+01,-1.894500e+01,4.238300e+01,-5.625000e+01,5.039100e+01,-1.904300e+01,3.818400e+01,-4.154300e+02,-4.023400e+01,-3.433590e+02,-1.512700e+02,-3.564500e+01,1.206050e+02,-1.992200e+01,4.853500e+01
3.252000e+01,-8.505860e+02,2.685500e+01,-9.121100e+01,2.246100e+01,-2.832000e+01,6.513700e+01,-2.392600e+01,7.070300e+01,2.021500e+01,9.257800e+01,-3.695310e+02,-3.720700e+01,-3.028320e+02,-1.253910e+02,3.125000e+00,1.449220e+02,7.129000e+00,8.183600e+01
5.097700e+01,-8.277340e+02,6.464800e+01,-7.080100e+01,3.916000e+01,-4.189500e+01,7.363300e+01,-3.125000e+00,6.669900e+01,3.652300e+01,9.775400e+01,-3.560550e+02,-6.416000e+01,-2.761720e+02,-1.111330e+02,1.914100e+01,1.609380e+02,2.919900e+01,9.638700e+01
6.503900e+01,-8.057620e+02,6.543000e+01,-4.326200e+01,3.984400e+01,-4.199200e+01,7.529300e+01,1.113300e+01,5.752000e+01,4.990200e+01,1.090820e+02,-3.339840e+02,-5.517600e+01,-2.535160e+02,-9.511700e+01,4.082000e+01,1.713870e+02,3.828100e+01,1.055660e+02
7.998000e+01,-7.801760e+02,7.714800e+01,-1.689500e+01,4.482400e+01,-4.892600e+01,8.867200e+01,3.584000e+01,6.464800e+01,7.304700e+01,1.182620e+02,-3.115230e+02,-6.474600e+01,-2.372070e+02,-7.607400e+01,6.728500e+01,1.865230e+02,5.537100e+01,1.250980e+02
7.451200e+01,-7.903320e+02,7.734400e+01,-3.974600e+01,4.023400e+01,-4.589800e+01,8.222700e+01,2.529300e+01,6.064500e+01,6.093700e+01,1.156250e+02,-3.265620e+02,-6.591800e+01,-2.519530e+02,-8.261700e+01,4.873000e+01,1.768550e+02,4.736300e+01,1.137700e+02
5.400400e+01,-8.176760e+02,4.892600e+01,-6.240200e+01,2.470700e+01,-2.998000e+01,6.308600e+01,8.790000e-01,4.941400e+01,3.525400e+01,8.867200e+01,-3.453120e+02,-6.015600e+01,-2.737300e+02,-1.054690e+02,1.835900e+01,1.568360e+02,2.324200e+01,8.867200e+01
3.222700e+01,-8.483400e+02,3.369100e+01,-8.564500e+01,1.191400e+01,-1.543000e+01,4.726600e+01,-1.816400e+01,4.668000e+01,1.884800e+01,6.113300e+01,-3.598630e+02,-5.722700e+01,-2.866210e+02,-1.347660e+02,-5.860000e-01,1.404300e+02,3.125000e+00,7.089800e+01
2.841800e+01,-8.640630e+02,3.691400e+01,-1.029300e+02,1.572300e+01,-1.845700e+01,4.228500e+01,-3.105500e+01,4.638700e+01,8.496000e+00,5.410200e+01,-3.958980e+02,-5.214800e+01,-3.129880e+02,-1.526370e+02,-1.201200e+01,1.387700e+02,-2.637000e+00,6.074200e+01
1.044900e+01,-8.903320e+02,4.297000e+00,-1.237300e+02,8.887000e+00,-1.289100e+01,3.203100e+01,-5.566400e+01,4.033200e+01,-1.601600e+01,6.162100e+01,-4.436520e+02,-3.740200e+01,-3.473630e+02,-1.626950e+02,-3.886700e+01,1.218750e+02,-2.021500e+01,4.003900e+01
1.425800e+01,-8.854490e+02,1.513700e+01,-1.222660e+02,1.611300e+01,-2.148400e+01,3.740200e+01,-5.449200e+01,4.502000e+01,-1.357400e+01,5.781300e+01,-4.086910e+02,-3.115200e+01,-3.410160e+02,-1.467770e+02,-3.183600e+01,1.261720e+02,-1.591800e+01,4.511700e+01
3.671900e+01,-8.517580e+02,4.345700e+01,-8.896500e+01,3.339800e+01,-3.964800e+01,5.986300e+01,-3.193400e+01,5.820300e+01,7.813000e+00,8.154300e+01,-3.700200e+02,-3.886700e+01,-3.149410e+02,-1.203120e+02,-4.688000e+00,1.496090e+02,1.054700e+01,7.099600e+01
5.283200e+01,-8.296880e+02,6.474600e+01,-5.615200e+01,4.472700e+01,-4.951200e+01,7.929700e+01,-1.269500e+01,7.060500e+01,25,9.502000e+01,-3.864260e+02,-5.693400e+01,-2.965820e+02,-9.824200e+01,9.082000e+00,1.671880e+02,3.183600e+01,8.964800e+01
6.406300e+01,-8.077150e+02,6.386700e+01,-5.019500e+01,4.414100e+01,-4.697300e+01,8.798800e+01,9.277000e+00,7.685500e+01,4.716800e+01,1.187500e+02,-3.597660e+02,-5.087900e+01,-2.739260e+02,-8.310500e+01,3.515600e+01,1.743160e+02,4.101600e+01,1.050780e+02
8.349600e+01,-7.741210e+02,9.228500e+01,-2.529300e+01,5.097700e+01,-5.517600e+01,9.228500e+01,3.046900e+01,7.402300e+01,6.298800e+01,1.252930e+02,-3.262700e+02,-6.611300e+01,-2.489260e+02,-8.125000e+01,6.074200e+01,1.921870e+02,5.820300e+01,1.201170e+02
7.802700e+01,-7.814450e+02,8.994100e+01,-3.642600e+01,4.687500e+01,-5.195300e+01,8.847700e+01,25,7.255900e+01,5.712900e+01,1.188480e+02,-3.096680e+02,-6.455100e+01,-2.439450e+02,-7.939500e+01,4.736300e+01,1.852540e+02,5.283200e+01,1.130860e+02
5.849600e+01,-8.138670e+02,6.240200e+01,-6.699200e+01,3.291000e+01,-3.701200e+01,7.148400e+01,-2.246000e+00,6.220700e+01,3.457000e+01,1.017580e+02,-3.476560e+02,-4.492200e+01,-2.914060e+02,-9.550800e+01,1.962900e+01,1.645510e+02,2.968800e+01,8.740200e+01
3.769500e+01,-8.378910e+02,3.281200e+01,-7.753900e+01,1.425800e+01,-1.640600e+01,5.566400e+01,-2.431600e+01,5.878900e+01,1.572300e+01,6.884800e+01,-3.703130e+02,-6.152300e+01,-3.111330e+02,-1.208980e+02,-1.465000e+00,1.496090e+02,7.520000e+00,6.884800e+01
2.890600e+01,-8.556640e+02,3.134800e+01,-9.150400e+01,1.933600e+01,-2.128900e+01,4.794900e+01,-4.433600e+01,5.293000e+01,7.810000e-01,5.937500e+01,-3.801760e+02,-5.937500e+01,-3.163090e+02,-1.373050e+02,-1.767600e+01,1.458980e+02,9.800000e-02,5.546900e+01
2.685500e+01,-8.730470e+02,2.470700e+01,-1.186520e+02,1.796900e+01,-2.050800e+01,3.623000e+01,-5.898400e+01,4.384800e+01,-1.396500e+01,6.787100e+01,-4.013670e+02,-3.877000e+01,-3.301760e+02,-1.423830e+02,-2.861300e+01,1.390620e+02,-1.084000e+01,3.828100e+01
3.300800e+01,-8.636720e+02,2.470700e+01,-1.106450e+02,1.503900e+01,-2.070300e+01,3.750000e+01,-4.687500e+01,4.648400e+01,-2.832000e+00,8.281200e+01,-3.867190e+02,-2.158200e+01,-3.180660e+02,-1.310550e+02,-1.279300e+01,1.466800e+02,-7.324000e+00,4.628900e+01
5.048800e+01,-8.345700e+02,4.892600e+01,-7.988300e+01,3.085900e+01,-3.613300e+01,6.132800e+01,-2.382800e+01,6.377000e+01,1.767600e+01,8.818400e+01,-3.668950e+02,-3.554700e+01,-3.002930e+02,-1.101560e+02,6.152000e+00,1.648440e+02,1.513700e+01,7.187500e+01
6.582000e+01,-8.131840e+02,7.793000e+01,-5.517600e+01,4.658200e+01,-4.921900e+01,8.203100e+01,-7.715000e+00,7.539100e+01,3.154300e+01,1.041990e+02,-3.647460e+02,-4.316400e+01,-2.889650e+02,-8.925800e+01,1.738300e+01,1.793950e+02,3.584000e+01,9.130900e+01
6.699200e+01,-8.041020e+02,7.968800e+01,-4.697300e+01,5.029300e+01,-5.380900e+01,7.714800e+01,0,6.123000e+01,3.505900e+01,8.808600e+01,-3.615230e+02,-6.845700e+01,-2.941410e+02,-9.404300e+01,2.031300e+01,1.782230e+02,3.906200e+01,9.296900e+01
7.627000e+01,-7.800780e+02,7.705100e+01,-2.851600e+01,4.707000e+01,-5.058600e+01,9.003900e+01,3.027300e+01,7.363300e+01,6.601600e+01,1.157230e+02,-3.265620e+02,-5.654300e+01,-2.823240e+02,-7.275400e+01,5.019500e+01,1.891600e+02,5.449200e+01,1.179690e+02
8.408200e+01,-7.738280e+02,8.125000e+01,-2.890600e+01,4.033200e+01,-4.589800e+01,9.746100e+01,3.701200e+01,8.789100e+01,7.539100e+01,1.476560e+02,-3.181640e+02,-4.931600e+01,-2.518550e+02,-6.416000e+01,5.771500e+01,1.913090e+02,5.507800e+01,1.231450e+02
7.578100e+01,-7.908200e+02,7.441400e+01,-4.414100e+01,3.300800e+01,-3.886700e+01,7.685500e+01,4.297000e+00,6.787100e+01,4.853500e+01,1.288090e+02,-3.146480e+02,-4.248000e+01,-2.454100e+02,-8.418000e+01,3.613300e+01,1.809570e+02,3.408200e+01,9.414100e+01
4.462900e+01,-8.276370e+02,6.123000e+01,-6.455100e+01,2.041000e+01,-2.324200e+01,5.390600e+01,-2.187500e+01,5.224600e+01,2.128900e+01,7.636700e+01,-3.628910e+02,-5.507800e+01,-2.846680e+02,-1.121090e+02,7.715000e+00,1.601560e+02,9.863000e+00,6.884800e+01
3.173800e+01,-8.513670e+02,4.785200e+01,-8.154300e+01,1.894500e+01,-2.041000e+01,4.902300e+01,-3.271500e+01,5.205100e+01,8.398000e+00,5.791000e+01,-4.200200e+02,-4.746100e+01,-3.045900e+02,-1.264650e+02,-4.102000e+00,1.507810e+02,-1.950000e-01,5.908200e+01
2.802700e+01,-8.683590e+02,2.031300e+01,-1.195310e+02,1.640600e+01,-2.060500e+01,4.726600e+01,-4.765600e+01,5.419900e+01,-2.930000e+00,7.373000e+01,-3.980470e+02,-1.640600e+01,-3.189450e+02,-1.280270e+02,-1.621100e+01,1.379880e+02,-1.337900e+01,4.658200e+01
2.568400e+01,-8.695310e+02,1.464800e+01,-1.215820e+02,1.611300e+01,-2.382800e+01,5.107400e+01,-4.941400e+01,6.445300e+01,-1.953000e+00,8.906300e+01,-3.735350e+02,-1.543000e+01,-3.273440e+02,-1.242190e+02,-1.416000e+01,1.366210e+02,-1.445300e+01,5.107400e+01
4.296900e+01,-8.415040e+02,4.863300e+01,-8.906300e+01,3.300800e+01,-4.033200e+01,6.699200e+01,-3.095700e+01,6.943400e+01,1.494100e+01,9.707000e+01,-3.690430e+02,-2.597700e+01,-3.068360e+02,-1.054690e+02,5.176000e+00,1.570310e+02,7.715000e+00,7.109400e+01
6.806600e+01,-8.074220e+02,7.705100e+01,-6.025400e+01,5.244100e+01,-5.654300e+01,8.447300e+01,-8.008000e+00,6.923800e+01,3.525400e+01,1.158200e+02,-3.434570e+02,-1.543000e+01,-2.766600e+02,-8.203100e+01,2.929700e+01,1.777340e+02,3.134800e+01,8.847700e+01
75,-7.916020e+02,8.291000e+01,-4.716800e+01,5.312500e+01,-5.478500e+01,9.013700e+01,8.594000e+00,6.806600e+01,5.127000e+01,1.372070e+02,-3.274410e+02,-2.265600e+01,-2.589840e+02,-7.587900e+01,4.726600e+01,1.829100e+02,3.945300e+01,9.853500e+01
8.632800e+01,-7.675780e+02,9.931600e+01,-2.197300e+01,5.644500e+01,-5.966800e+01,1.040040e+02,2.919900e+01,8.115200e+01,6.962900e+01,1.538090e+02,-3.058590e+02,-5.234400e+01,-2.343750e+02,-6.660200e+01,7.070300e+01,1.955080e+02,5.468800e+01,1.175780e+02
8.779300e+01,-7.679690e+02,9.970700e+01,-1.796900e+01,5.048800e+01,-5.644500e+01,9.951200e+01,2.460900e+01,7.646500e+01,6.298800e+01,1.348630e+02,-3.112300e+02,-6.503900e+01,-2.404300e+02,-6.962900e+01,6.269500e+01,1.941410e+02,5.205100e+01,1.100590e+02
6.943400e+01,-7.925780e+02,7.587900e+01,-2.910200e+01,3.398400e+01,-3.935500e+01,7.470700e+01,-7.324000e+00,5.595700e+01,3.388700e+01,1.069340e+02,-3.742190e+02,-6.103500e+01,-2.875980e+02,-9.150400e+01,1.865200e+01,1.771480e+02,2.685500e+01,7.910200e+01
4.716800e+01,-8.220700e+02,5.488300e+01,-7.138700e+01,2.304700e+01,-2.636700e+01,5.986300e+01,-2.695300e+01,5.341800e+01,1.757800e+01,9.169900e+01,-3.582030e+02,-4.453100e+01,-3.081050e+02,-1.062500e+02,9.770000e-01,1.567380e+02,4.492000e+00,6.035200e+01
4.248000e+01,-8.377930e+02,5.351600e+01,-9.863300e+01,2.910200e+01,-3.056600e+01,5.664100e+01,-3.740200e+01,5.468800e+01,9.375000e+00,8.134800e+01,-3.539060e+02,-3.310500e+01,-3.061520e+02,-1.160160e+02,-1.367000e+00,1.518550e+02,-2.539000e+00,5.136700e+01
3.164100e+01,-8.615230e+02,3.388700e+01,-1.171870e+02,2.441400e+01,-2.773400e+01,5.361300e+01,-5.390600e+01,5.625000e+01,-9.961000e+00,8.330100e+01,-3.876950e+02,-2.060500e+01,-3.229490e+02,-1.239260e+02,-2.128900e+01,1.410160e+02,-1.572300e+01,3.750000e+01
3.144500e+01,-8.624020e+02,2.841800e+01,-1.137700e+02,2.187500e+01,-2.919900e+01,5.195300e+01,-5.986300e+01,5.576200e+01,-1.386700e+01,8.300800e+01,-3.862300e+02,-2.617200e+01,-3.273440e+02,-1.327150e+02,-2.353500e+01,1.420900e+02,-1.816400e+01,3.613300e+01
4.628900e+01,-8.385740e+02,4.882800e+01,-8.808600e+01,3.945300e+01,-4.746100e+01,6.435500e+01,-4.882800e+01,5.722700e+01,7.910000e+00,8.466800e+01,-3.773440e+02,-4.091800e+01,-3.175780e+02,-1.152340e+02,-4.395000e+00,1.599610e+02,3.516000e+00,5.595700e+01
6.953100e+01,-8.053710e+02,7.334000e+01,-5.371100e+01,5.087900e+01,-5.576200e+01,7.968800e+01,-2.675800e+01,6.425800e+01,2.822300e+01,1.235350e+02,-3.687500e+02,-2.861300e+01,-3.061520e+02,-8.789100e+01,1.543000e+01,1.821290e+02,2.861300e+01,7.763700e+01
8.105500e+01,-7.836910e+02,8.515600e+01,-3.750000e+01,5.351600e+01,-5.566400e+01,9.091800e+01,-1.259800e+01,7.031200e+01,3.632800e+01,1.418950e+02,-3.254880e+02,-2.421900e+01,-2.628910e+02,-7.304700e+01,2.900400e+01,1.917970e+02,4.052700e+01,9.082000e+01
8.701200e+01,-7.637700e+02,1.010740e+02,-5.469000e+00,5.537100e+01,-5.761700e+01,9.619100e+01,1.465000e+00,7.216800e+01,5.019500e+01,1.368160e+02,-3.290040e+02,-4.873000e+01,-2.603520e+02,-6.748000e+01,4.111300e+01,2.026370e+02,5.322300e+01,1.066410e+02
7.949200e+01,-7.726560e+02,9.853500e+01,-2.041000e+01,4.814500e+01,-5.371100e+01,8.681600e+01,2.734000e+00,5.918000e+01,4.111300e+01,1.350590e+02,-3.503910e+02,-5.800800e+01,-2.788090e+02,-8.037100e+01,3.164100e+01,1.933590e+02,4.951200e+01,1.011720e+02
6.308600e+01,-7.957030e+02,7.138700e+01,-5.488300e+01,3.544900e+01,-4.062500e+01,7.314500e+01,-7.324000e+00,5.791000e+01,3.056600e+01,1.141600e+02,-3.343750e+02,-4.423800e+01,-2.746090e+02,-9.492200e+01,2.275400e+01,1.740230e+02,2.900400e+01,8.496100e+01
4.384800e+01,-8.234380e+02,6.084000e+01,-7.392600e+01,2.460900e+01,-2.724600e+01,6.240200e+01,-2.128900e+01,6.396500e+01,1.816400e+01,8.027300e+01,-3.419920e+02,-5.136700e+01,-2.652340e+02,-1.225590e+02,1.230500e+01,1.611330e+02,1.093700e+01,7.255900e+01
3.212900e+01,-8.444340e+02,6.035200e+01,-9.502000e+01,2.529300e+01,-2.685500e+01,6.084000e+01,-3.574200e+01,7.041000e+01,7.910000e+00,5.595700e+01,-3.651370e+02,-5.996100e+01,-3.040040e+02,-1.339840e+02,-3.027000e+00,1.532230e+02,2.051000e+00,6.601600e+01
9.180000e+00,-8.813480e+02,1.953100e+01,-1.324220e+02,2.197300e+01,-2.529300e+01,3.750000e+01,-5.712900e+01,4.111300e+01,-1.142600e+01,2.880900e+01,-4.138670e+02,-5.908200e+01,-3.606450e+02,-1.477540e+02,-2.949200e+01,1.297850e+02,-1.796900e+01,4.160200e+01
1.240200e+01,-8.781250e+02,1.523400e+01,-1.233400e+02,1.367200e+01,-1.962900e+01,3.027300e+01,-5.605500e+01,3.496100e+01,-8.887000e+00,5.507800e+01,-4.101560e+02,-1.113300e+01,-3.373050e+02,-1.438480e+02,-2.607400e+01,1.339840e+02,-1.933600e+01,4.121100e+01
3.613300e+01,-8.432620e+02,5.166000e+01,-8.476600e+01,2.529300e+01,-3.125000e+01,4.863300e+01,-2.978500e+01,4.755900e+01,1.367200e+01,9.619100e+01,-3.761720e+02,-3.222700e+01,-2.938480e+02,-1.237300e+02,3.516000e+00,1.598630e+02,5.957000e+00,6.709000e+01
5.166000e+01,-8.179690e+02,8.300800e+01,-6.552700e+01,4.502000e+01,-4.902300e+01,7.275400e+01,-3.027000e+00,6.533200e+01,3.535200e+01,1.103520e+02,-3.520510e+02,-5.429700e+01,-2.684570e+02,-1.022460e+02,2.324200e+01,1.736330e+02,2.939500e+01,9.160200e+01
6.005900e+01,-8.030270e+02,7.470700e+01,-5.820300e+01,4.785200e+01,-4.902300e+01,8.974600e+01,1.904300e+01,7.880900e+01,5.146500e+01,1.328130e+02,-3.379880e+02,-3.925800e+01,-2.501950e+02,-8.173800e+01,3.750000e+01,1.766600e+02,3.964800e+01,1.095700e+02
6.884800e+01,-7.817380e+02,8.144500e+01,-3.232400e+01,4.892600e+01,-5.214800e+01,1.005860e+02,4.111300e+01,8.320300e+01,7.089800e+01,1.391600e+02,-3.047850e+02,-4.824200e+01,-2.191410e+02,-6.855500e+01,6.513700e+01,1.876950e+02,5.283200e+01,1.268550e+02
7.548800e+01,-7.761720e+02,9.316400e+01,-3.408200e+01,5.058600e+01,-5.644500e+01,1.002930e+02,4.111300e+01,7.959000e+01,7.392600e+01,1.362300e+02,-3.038090e+02,-5.332000e+01,-2.476560e+02,-6.533200e+01,6.377000e+01,1.886720e+02,5.468800e+01,1.260740e+02
5.136700e+01,-8.059570e+02,6.591800e+01,-5.898400e+01,3.320300e+01,-3.916000e+01,8.330100e+01,1.709000e+01,7.412100e+01,4.892600e+01,1.138670e+02,-3.375980e+02,-5.498000e+01,-2.764650e+02,-8.505900e+01,3.232400e+01,1.665040e+02,3.037100e+01,1.016600e+02
3.007800e+01,-8.314450e+02,4.716800e+01,-7.255900e+01,1.845700e+01,-2.041000e+01,5.673800e+01,-6.152000e+00,5.781300e+01,2.871100e+01,8.261700e+01,-3.548830e+02,-5.585900e+01,-2.993160e+02,-1.186520e+02,1.064500e+01,1.523440e+02,8.203000e+00,7.773400e+01
2.050800e+01,-8.509770e+02,3.388700e+01,-8.808600e+01,1.435500e+01,-1.523400e+01,4.658200e+01,-2.304700e+01,4.960900e+01,1.435500e+01,8.173800e+01,-3.868160e+02,-4.209000e+01,-3.096680e+02,-1.281250e+02,-3.125000e+00,1.462890e+02,-2.051000e+00,6.425800e+01
1.230500e+01,-8.754880e+02,2.451200e+01,-1.287110e+02,1.601600e+01,-1.875000e+01,4.824200e+01,-4.043000e+01,5.673800e+01,3.125000e+00,7.714800e+01,-3.962890e+02,-2.890600e+01,-3.212890e+02,-1.344730e+02,-1.835900e+01,1.343750e+02,-1.308600e+01,5.302700e+01
1.562000e+00,-8.867190e+02,2.353500e+01,-1.339840e+02,1.591800e+01,-2.246100e+01,4.570300e+01,-5.468800e+01,5.283200e+01,-6.836000e+00,6.377000e+01,-4.164060e+02,-2.890600e+01,-3.413090e+02,-1.443360e+02,-3.154300e+01,1.276370e+02,-2.041000e+01,4.404300e+01
2.441400e+01,-8.493160e+02,4.394500e+01,-9.091800e+01,2.597700e+01,-3.300800e+01,5.468800e+01,-2.900400e+01,4.941400e+01,1.679700e+01,7.587900e+01,-3.813480e+02,-4.287100e+01,-3.125980e+02,-1.283200e+02,-3.516000e+00,1.526370e+02,2.832000e+00,6.513700e+01
5.019500e+01,-8.151370e+02,6.279300e+01,-6.259800e+01,4.121100e+01,-4.472700e+01,7.119100e+01,-2.832000e+00,5.634800e+01,3.828100e+01,1.180660e+02,-3.527340e+02,-3.398400e+01,-2.778320e+02,-9.824200e+01,2.373000e+01,1.741210e+02,2.705100e+01,8.740200e+01
5.615200e+01,-8.024410e+02,7.255900e+01,-6.152300e+01,4.785200e+01,-4.902300e+01,8.369100e+01,1.562500e+01,6.464800e+01,5.234400e+01,1.326170e+02,-3.285160e+02,-3.339800e+01,-2.666990e+02,-7.734400e+01,4.511700e+01,1.769530e+02,3.730500e+01,1.014650e+02
6.230500e+01,-7.856450e+02,9.345700e+01,-4.609400e+01,5.273400e+01,-5.634800e+01,9.462900e+01,3.212900e+01,7.470700e+01,6.806600e+01,1.284180e+02,-3.084960e+02,-5.410200e+01,-2.547850e+02,-6.416000e+01,6.230500e+01,1.845700e+02,4.863300e+01,1.174800e+02
6.484400e+01,-7.775390e+02,1.040040e+02,-3.623000e+01,5.293000e+01,-5.800800e+01,9.101600e+01,3.027300e+01,6.816400e+01,6.289100e+01,1.212890e+02,-3.119140e+02,-7.412100e+01,-2.553710e+02,-7.041000e+01,5.234400e+01,1.872070e+02,50,1.145510e+02
4.541000e+01,-8.063480e+02,6.474600e+01,-6.064500e+01,3.515600e+01,-4.121100e+01,7.812500e+01,7.324000e+00,6.533200e+01,4.394500e+01,1.111330e+02,-3.542970e+02,-5.527300e+01,-2.762700e+02,-8.867200e+01,2.666000e+01,1.663090e+02,2.714800e+01,9.414100e+01
2.597700e+01,-8.320310e+02,3.779300e+01,-7.148400e+01,1.162100e+01,-1.582000e+01,5.996100e+01,-7.520000e+00,5.996100e+01,2.773400e+01,9.560500e+01,-3.840820e+02,-4.013700e+01,-3.100590e+02,-1.083010e+02,9.473000e+00,1.511720e+02,6.250000e+00,7.734400e+01
1.533200e+01,-850,3.095700e+01,-8.642600e+01,8.398000e+00,-1.025400e+01,4.648400e+01,-2.587900e+01,5.214800e+01,1.308600e+01,7.929700e+01,-3.875000e+02,-3.720700e+01,-3.228520e+02,-1.200200e+02,-1.035200e+01,1.448240e+02,-4.883000e+00,6.269500e+01
1.279300e+01,-8.663090e+02,3.554700e+01,-1.190430e+02,1.630900e+01,-1.982400e+01,4.443400e+01,-5.029300e+01,5.449200e+01,1.367000e+00,7.402300e+01,-3.891600e+02,-2.617200e+01,-3.266600e+02,-125,-2.744100e+01,1.394530e+02,-1.259800e+01,5.097700e+01
4.395000e+00,-8.786130e+02,1.503900e+01,-1.281250e+02,1.142600e+01,-1.757800e+01,3.671900e+01,-5.595700e+01,4.980500e+01,-3.809000e+00,7.949200e+01,-4.141600e+02,-2.402300e+01,-3.291990e+02,-1.356450e+02,-3.027300e+01,1.314450e+02,-1.982400e+01,4.443400e+01
1.933600e+01,-8.539060e+02,3.447300e+01,-1.041990e+02,2.353500e+01,-3.095700e+01,5.546900e+01,-2.509800e+01,6.152300e+01,2.431600e+01,9.619100e+01,-3.868160e+02,-3.242200e+01,-3.043950e+02,-1.166990e+02,5.664000e+00,1.482420e+02,2.637000e+00,7.109400e+01
4.130900e+01,-8.249020e+02,6.464800e+01,-8.554700e+01,4.287100e+01,-4.707000e+01,8.349600e+01,-2.441000e+00,8.046900e+01,4.707000e+01,1.097660e+02,-3.410160e+02,-4.052700e+01,-3.013670e+02,-8.886700e+01,1.884800e+01,1.658200e+02,2.656300e+01,9.697300e+01
5.332000e+01,-8.042970e+02,7.705100e+01,-6.171900e+01,4.638700e+01,-4.882800e+01,9.072300e+01,3.809000e+00,7.675800e+01,4.843800e+01,1.203120e+02,-3.294920e+02,-4.326200e+01,-2.702150e+02,-7.959000e+01,2.568400e+01,1.747070e+02,3.818400e+01,1.048830e+02
6.503900e+01,-7.786130e+02,9.160200e+01,-3.125000e+01,5.039100e+01,-5.253900e+01,9.521500e+01,2.158200e+01,7.382800e+01,6.171900e+01,1.223630e+02,-3.241210e+02,-4.140600e+01,-2.375980e+02,-5.595700e+01,5.166000e+01,1.869140e+02,5.087900e+01,1.184570e+02
7.197300e+01,-7.656250e+02,1.035160e+02,-1.669900e+01,4.853500e+01,-5.312500e+01,9.541000e+01,3.310500e+01,7.480500e+01,6.142600e+01,1.290040e+02,-3.140620e+02,-6.357400e+01,-2.511720e+02,-5.820300e+01,5.947300e+01,1.916020e+02,5.517600e+01,1.217770e+02
4.218800e+01,-8.076170e+02,6.660200e+01,-5.214800e+01,3.017600e+01,-3.642600e+01,7.627000e+01,6.152000e+00,6.347700e+01,3.886700e+01,1.063480e+02,-3.718750e+02,-6.972700e+01,-3.125980e+02,-8.252000e+01,2.412100e+01,1.644530e+02,2.890600e+01,9.609400e+01
1.728500e+01,-8.431640e+02,4.560500e+01,-1.010740e+02,2.998000e+01,-3.271500e+01,6.875000e+01,-2.246100e+01,6.416000e+01,2.695300e+01,6.044900e+01,-3.607420e+02,-6.630900e+01,-2.923830e+02,-1.019530e+02,9.277000e+00,1.415040e+02,7.129000e+00,7.832000e+01
2.148400e+01,-8.470700e+02,4.843800e+01,-1.127930e+02,2.324200e+01,-2.353500e+01,6.660200e+01,-3.154300e+01,7.255900e+01,25,9.228500e+01,-3.521480e+02,-2.207000e+01,-2.873050e+02,-1.055660e+02,6.934000e+00,1.450200e+02,1.367000e+00,7.480500e+01
1.406200e+01,-8.679690e+02,6.621100e+01,-1.226560e+02,1.992200e+01,-2.089800e+01,4.335900e+01,-5.293000e+01,5.009800e+01,9.800000e-02,7.627000e+01,-3.936520e+02,-2.880900e+01,-3.200200e+02,-1.328130e+02,-2.353500e+01,1.395510e+02,-1.142600e+01,5.048800e+01
8.105000e+00,-8.784180e+02,2.685500e+01,-1.300780e+02,1.074200e+01,-1.709000e+01,3.847700e+01,-5.810500e+01,4.863300e+01,-1.562000e+00,7.470700e+01,-4.089840e+02,-2.265600e+01,-3.329100e+02,-1.358400e+02,-3.037100e+01,1.312500e+02,-2.207000e+01,4.511700e+01
2.021500e+01,-8.536130e+02,2.187500e+01,-1.048830e+02,2.304700e+01,-2.988300e+01,6.425800e+01,-2.783200e+01,6.816400e+01,2.822300e+01,1.133790e+02,-3.763670e+02,-1.709000e+01,-3.045900e+02,-1.041020e+02,9.180000e+00,1.450200e+02,-1.562000e+00,7.382800e+01
4.326200e+01,-8.239260e+02,5.888700e+01,-7.695300e+01,4.189500e+01,-4.502000e+01,8.554700e+01,-7.617000e+00,7.695300e+01,4.404300e+01,1.284180e+02,-3.659180e+02,-2.783200e+01,-2.952150e+02,-8.066400e+01,2.793000e+01,1.653320e+02,2.314500e+01,9.433600e+01
5.087900e+01,-8.090820e+02,7.714800e+01,-6.923800e+01,4.863300e+01,-4.990200e+01,9.658200e+01,8.984000e+00,8.212900e+01,5.634800e+01,1.361330e+02,-3.517580e+02,-3.544900e+01,-2.625980e+02,-6.992200e+01,4.355500e+01,1.703130e+02,3.369100e+01,1.063480e+02
6.220700e+01,-7.851560e+02,9.199200e+01,-4.716800e+01,5.488300e+01,-5.664100e+01,1.105470e+02,2.841800e+01,9.404300e+01,7.373000e+01,1.475590e+02,-3.085940e+02,-4.003900e+01,-2.589840e+02,-5.585900e+01,6.357400e+01,1.811520e+02,4.628900e+01,1.230470e+02
6.513700e+01,-7.754880e+02,9.746100e+01,-3.877000e+01,5.371100e+01,-5.859400e+01,1.111330e+02,3.554700e+01,8.828100e+01,7.685500e+01,1.428710e+02,-2.980470e+02,-4.570300e+01,-2.535160e+02,-4.912100e+01,6.640600e+01,1.833010e+02,4.970700e+01,1.244140e+02
4.580100e+01,-8.030270e+02,7.607400e+01,-6.650400e+01,3.642600e+01,-4.326200e+01,8.769500e+01,1.074200e+01,6.962900e+01,5.419900e+01,1.266600e+02,-3.210940e+02,-4.306600e+01,-2.610350e+02,-7.412100e+01,4.091800e+01,1.629880e+02,2.617200e+01,9.609400e+01
2.753900e+01,-8.290040e+02,5.537100e+01,-8.623000e+01,2.412100e+01,-2.714800e+01,7.177700e+01,-1.543000e+01,6.377000e+01,3.193400e+01,1.088870e+02,-3.492190e+02,-3.437500e+01,-2.909180e+02,-9.785200e+01,1.396500e+01,1.484370e+02,3.906000e+00,7.373000e+01
1.826200e+01,-8.472660e+02,4.326200e+01,-9.179700e+01,1.777300e+01,-1.972700e+01,5.918000e+01,-3.750000e+01,5.673800e+01,1.074200e+01,9.003900e+01,-4.070310e+02,-4.199200e+01,-3.291020e+02,-1.167970e+02,-8.301000e+00,1.425780e+02,-1.015600e+01,5.595700e+01
1.240200e+01,-8.653320e+02,3.632800e+01,-1.154300e+02,1.806600e+01,-2.080100e+01,5.332000e+01,-5.341800e+01,5.781300e+01,-5.273000e+00,7.246100e+01,-4.202150e+02,-3.447300e+01,-3.450200e+02,-1.295900e+02,-2.334000e+01,1.341800e+02,-1.982400e+01,4.179700e+01
2.930000e-01,-8.837890e+02,2.793000e+01,-1.386720e+02,1.709000e+01,-2.236300e+01,4.912100e+01,-6.933600e+01,5.498000e+01,-1.855500e+01,7.128900e+01,-4.264650e+02,-2.353500e+01,-3.516600e+02,-1.332030e+02,-3.603500e+01,1.237300e+02,-2.929700e+01,3.105500e+01
2.294900e+01,-8.528320e+02,4.951200e+01,-1.129880e+02,3.056600e+01,-3.701200e+01,6.035200e+01,-4.521500e+01,5.166000e+01,5.176000e+00,9.345700e+01,-3.637700e+02,-2.959000e+01,-3.009770e+02,-1.134770e+02,-6.641000e+00,1.452150e+02,-7.324000e+00,5.166000e+01
4.882800e+01,-8.169920e+02,7.597700e+01,-7.656300e+01,5.039100e+01,-5.546900e+01,8.642600e+01,-2.519500e+01,6.904300e+01,2.724600e+01,1.033200e+02,-3.418950e+02,-4.209000e+01,-2.970700e+02,-8.525400e+01,1.416000e+01,1.683590e+02,1.904300e+01,7.607400e+01
4.785200e+01,-8.085940e+02,7.714800e+01,-5.781300e+01,5.195300e+01,-5.507800e+01,9.365200e+01,-1.894500e+01,7.041000e+01,2.675800e+01,1.116210e+02,-3.646480e+02,-4.892600e+01,-3.165040e+02,-7.441400e+01,1.084000e+01,1.688480e+02,2.656300e+01,8.242200e+01
6.503900e+01,-7.771480e+02,9.326200e+01,-1.894500e+01,4.960900e+01,-5.166000e+01,9.658200e+01,7.422000e+00,6.669900e+01,5.078100e+01,1.369140e+02,-3.274410e+02,-3.710900e+01,-2.481450e+02,-5.810500e+01,4.697300e+01,1.860350e+02,4.111300e+01,9.941400e+01
7.519500e+01,-7.682620e+02,1.190430e+02,-3.945300e+01,5.947300e+01,-6.386700e+01,1.057620e+02,2.353500e+01,7.275400e+01,6.826200e+01,1.429690e+02,-2.826170e+02,-4.619100e+01,-2.316410e+02,-4.775400e+01,6.318400e+01,1.902340e+02,5.117200e+01,1.117190e+02
5.195300e+01,-8.009770e+02,8.984400e+01,-7.285200e+01,4.160200e+01,-4.648400e+01,9.052700e+01,4.883000e+00,7.050800e+01,5.107400e+01,1.203120e+02,-3.301760e+02,-5.449200e+01,-2.801760e+02,-7.587900e+01,3.027300e+01,1.665040e+02,2.812500e+01,9.160200e+01
3.085900e+01,-8.251950e+02,5.410200e+01,-8.632800e+01,2.460900e+01,-2.832000e+01,7.177700e+01,-1.660200e+01,6.210900e+01,3.212900e+01,1.115230e+02,-3.343750e+02,-3.701200e+01,-2.697270e+02,-9.677700e+01,1.718700e+01,1.497070e+02,6.055000e+00,7.070300e+01
2.002000e+01,-8.420900e+02,4.062500e+01,-9.892600e+01,1.669900e+01,-2.031300e+01,5.625000e+01,-3.281200e+01,5.146500e+01,1.308600e+01,1.044920e+02,-3.571290e+02,-3.710900e+01,-2.887700e+02,-1.132810e+02,3.418000e+00,1.430660e+02,-6.934000e+00,5.634800e+01
1.289100e+01,-8.629880e+02,3.613300e+01,-1.176760e+02,1.738300e+01,-2.031300e+01,4.863300e+01,-5.273400e+01,4.765600e+01,-7.031000e+00,9.267600e+01,-3.930660e+02,-2.968800e+01,-3.183590e+02,-1.243160e+02,-2.265600e+01,1.367190e+02,-1.552700e+01,4.296900e+01
1.660000e+00,-8.806640e+02,2.353500e+01,-1.272460e+02,1.201200e+01,-1.806600e+01,4.179700e+01,-6.591800e+01,4.628900e+01,-2.207000e+01,7.324200e+01,-4.265630e+02,-2.880900e+01,-3.488280e+02,-1.369140e+02,-4.082000e+01,1.266600e+02,-2.656300e+01,3.232400e+01
1.093700e+01,-8.598630e+02,3.935500e+01,-1.102540e+02,2.529300e+01,-3.212900e+01,6.347700e+01,-4.023400e+01,6.181600e+01,1.465000e+00,8.154300e+01,-3.898440e+02,-3.652300e+01,-3.179690e+02,-1.138670e+02,-1.347700e+01,1.403320e+02,-6.543000e+00,5.898400e+01
3.320300e+01,-8.287110e+02,6.767600e+01,-8.505900e+01,3.935500e+01,-4.404300e+01,7.509800e+01,-1.337900e+01,6.152300e+01,2.822300e+01,1.015630e+02,-3.439450e+02,-3.867200e+01,-3.028320e+02,-1.007810e+02,1.396500e+01,1.625000e+02,1.767600e+01,8.066400e+01
4.589800e+01,-8.087890e+02,8.437500e+01,-6.152300e+01,4.472700e+01,-4.707000e+01,8.037100e+01,1.953000e+00,6.064500e+01,4.209000e+01,1.104490e+02,-3.581050e+02,-4.716800e+01,-2.882810e+02,-9.785200e+01,2.148400e+01,1.727540e+02,3.037100e+01,9.267600e+01
5.390600e+01,-7.840820e+02,1.028320e+02,-4.414100e+01,4.755900e+01,-4.970700e+01,9.277300e+01,2.275400e+01,7.236300e+01,5.966800e+01,1.072270e+02,-3.170900e+02,-7.402300e+01,-2.431640e+02,-8.789100e+01,4.560500e+01,1.816410e+02,4.306600e+01,1.122070e+02
5.644500e+01,-7.788090e+02,1.192380e+02,-4.521500e+01,5.205100e+01,-5.625000e+01,1.017580e+02,3.447300e+01,8.095700e+01,7.011700e+01,1.062500e+02,-3.041990e+02,-7.763700e+01,-2.433590e+02,-7.841800e+01,6.347700e+01,1.838870e+02,5.283200e+01,1.238280e+02
4.013700e+01,-8.055660e+02,5.371100e+01,-6.787100e+01,3.212900e+01,-3.750000e+01,9.648400e+01,2.138700e+01,8.349600e+01,5.546900e+01,1.252930e+02,-3.252930e+02,-4.638700e+01,-2.628910e+02,-7.910200e+01,5.058600e+01,1.637700e+02,3.144500e+01,1.088870e+02
1.357400e+01,-8.390630e+02,3.095700e+01,-8.837900e+01,1.865200e+01,-2.392600e+01,8.125000e+01,-6.055000e+00,7.763700e+01,3.134800e+01,8.769500e+01,-3.698240e+02,-5.410200e+01,-2.896480e+02,-9.736300e+01,1.933600e+01,1.432620e+02,7.324000e+00,8.593700e+01
-4.980000e+00,-8.652340e+02,2.509800e+01,-1.200200e+02,1.855500e+01,-2.265600e+01,6.416000e+01,-2.724600e+01,6.513700e+01,1.289100e+01,2.695300e+01,-3.892580e+02,-8.271500e+01,-3.108400e+02,-1.307620e+02,-4.395000e+00,1.291990e+02,-8.398000e+00,6.709000e+01
-6.840000e-01,-8.734380e+02,2.724600e+01,-1.315430e+02,1.152300e+01,-1.464800e+01,5.341800e+01,-3.281200e+01,5.849600e+01,8.984000e+00,6.269500e+01,-4.033200e+02,-4.834000e+01,-3.144530e+02,-1.340820e+02,-1.142600e+01,1.314450e+02,-1.279300e+01,5.839800e+01
-5.469000e+00,-8.827150e+02,1.826200e+01,-1.353520e+02,2.051000e+00,-7.129000e+00,2.890600e+01,-4.462900e+01,3.574200e+01,-4.199000e+00,7.168000e+01,-4.071290e+02,-3.779300e+01,-3.444340e+02,-1.520510e+02,-2.207000e+01,1.274410e+02,-2.480500e+01,4.150400e+01
1.162100e+01,-8.530270e+02,3.828100e+01,-1.008790e+02,2.070300e+01,-2.714800e+01,4.951200e+01,-2.402300e+01,5.351600e+01,1.142600e+01,8.056600e+01,-3.891600e+02,-3.759800e+01,-3.187500e+02,-1.334960e+02,9.800000e-02,1.471680e+02,-3.418000e+00,6.543000e+01
3.320300e+01,-8.288090e+02,6.562500e+01,-8.349600e+01,3.896500e+01,-4.316400e+01,7.373000e+01,-3.711000e+00,6.543000e+01,2.919900e+01,1.072270e+02,-3.702150e+02,-3.183600e+01,-3.083010e+02,-1.051760e+02,1.621100e+01,1.655270e+02,2.128900e+01,8.691400e+01
4.726600e+01,-8.088870e+02,8.066400e+01,-6.943400e+01,4.550800e+01,-4.785200e+01,8.603500e+01,1.103500e+01,6.796900e+01,4.921900e+01,1.089840e+02,-3.442380e+02,-3.847700e+01,-2.826170e+02,-8.535200e+01,3.281200e+01,1.762700e+02,3.593800e+01,1.006840e+02
5.068400e+01,-7.895510e+02,9.199200e+01,-5.585900e+01,5.302700e+01,-5.527300e+01,9.902300e+01,2.783200e+01,7.832000e+01,7.089800e+01,9.804700e+01,-3.098630e+02,-5.830100e+01,-2.514650e+02,-6.601600e+01,5.546900e+01,1.827150e+02,4.628900e+01,1.174800e+02
5.791000e+01,-7.775390e+02,1.043950e+02,-3.994100e+01,5.498000e+01,-5.898400e+01,1.093750e+02,3.964800e+01,8.652300e+01,8.007800e+01,1.221680e+02,-2.903320e+02,-5.302700e+01,-2.357420e+02,-4.668000e+01,6.689500e+01,1.903320e+02,5.595700e+01,1.285160e+02
4.892600e+01,-7.945310e+02,8.281200e+01,-5.244100e+01,3.183600e+01,-3.701200e+01,8.300800e+01,2.021500e+01,6.767600e+01,5.849600e+01,1.035160e+02,-3.321290e+02,-4.785200e+01,-2.528320e+02,-7.216800e+01,4.072300e+01,1.781250e+02,3.496100e+01,1.037110e+02
2.949200e+01,-8.168950e+02,5.361300e+01,-7.861300e+01,1.601600e+01,-2.002000e+01,6.191400e+01,8.790000e-01,5.644500e+01,4.091800e+01,8.320300e+01,-3.455080e+02,-4.648400e+01,-2.835940e+02,-9.882800e+01,1.796900e+01,1.593750e+02,1.152300e+01,8.232400e+01
1.572300e+01,-8.357420e+02,4.414100e+01,-8.798800e+01,1.152300e+01,-1.357400e+01,5.166000e+01,-1.845700e+01,5.283200e+01,2.246100e+01,6.132800e+01,-3.617190e+02,-4.765600e+01,-3.017580e+02,-1.200200e+02,-1.074000e+00,1.510740e+02,-1.562000e+00,6.767600e+01
7.910000e+00,-8.589840e+02,3.320300e+01,-1.155270e+02,1.494100e+01,-1.855500e+01,4.902300e+01,-3.535200e+01,5.234400e+01,6.250000e+00,5.537100e+01,-3.913090e+02,-2.841800e+01,-3.240230e+02,-1.302730e+02,-1.494100e+01,1.429690e+02,-1.035200e+01,5.517600e+01
-6.348000e+00,-8.852540e+02,2.187500e+01,-1.466800e+02,9.668000e+00,-1.513700e+01,4.003900e+01,-4.453100e+01,5.166000e+01,-5.078000e+00,5.537100e+01,-4.179690e+02,-3.535200e+01,-3.540040e+02,-1.479490e+02,-2.451200e+01,1.284180e+02,-2.353500e+01,4.472700e+01
1.464800e+01,-8.513670e+02,4.043000e+01,-1.139650e+02,2.714800e+01,-3.369100e+01,6.171900e+01,-2.148400e+01,6.523400e+01,2.050800e+01,8.007800e+01,-3.627930e+02,-3.203100e+01,-2.942380e+02,-1.137700e+02,1.259800e+01,1.493160e+02,-7.810000e-01,7.011700e+01
3.623000e+01,-8.201170e+02,6.894500e+01,-8.027300e+01,4.384800e+01,-4.882800e+01,8.476600e+01,-2.539000e+00,7.656300e+01,3.867200e+01,8.886700e+01,-3.421880e+02,-3.505900e+01,-2.649410e+02,-8.769500e+01,2.919900e+01,1.695310e+02,2.373000e+01,9.169900e+01
4.765600e+01,-8.031250e+02,9.238300e+01,-7.587900e+01,5.332000e+01,-5.654300e+01,9.960900e+01,1.201200e+01,8.593700e+01,5.234400e+01,9.638700e+01,-3.249020e+02,-4.375000e+01,-2.609370e+02,-6.835900e+01,3.779300e+01,1.774410e+02,3.769500e+01,1.071290e+02
5.859400e+01,-7.780270e+02,8.779300e+01,-4.277300e+01,4.960900e+01,-5.253900e+01,1.087890e+02,3.203100e+01,9.414100e+01,7.060500e+01,1.209960e+02,-3.021480e+02,-4.316400e+01,-2.518550e+02,-5.019500e+01,5.683600e+01,1.877930e+02,4.824200e+01,1.247070e+02
6.621100e+01,-7.651370e+02,9.970700e+01,-1.806600e+01,5.293000e+01,-5.693400e+01,1.145510e+02,4.306600e+01,9.365200e+01,7.919900e+01,1.291020e+02,-3.163090e+02,-5.039100e+01,-2.457030e+02,-4.335900e+01,6.416000e+01,1.964840e+02,5.810500e+01,1.348630e+02
4.951200e+01,-7.931640e+02,8.662100e+01,-5.439500e+01,3.935500e+01,-4.482400e+01,9.834000e+01,1.875000e+01,8.027300e+01,5.556600e+01,1.124020e+02,-3.411130e+02,-4.580100e+01,-2.655270e+02,-6.689500e+01,3.916000e+01,1.764650e+02,3.535200e+01,1.117190e+02
3.212900e+01,-8.137700e+02,6.699200e+01,-8.378900e+01,2.460900e+01,-2.861300e+01,7.324200e+01,5.371000e+00,6.191400e+01,4.384800e+01,8.378900e+01,-3.288090e+02,-3.623000e+01,-2.692380e+02,-9.033200e+01,2.998000e+01,1.593750e+02,1.289100e+01,8.867200e+01
1.904300e+01,-8.328130e+02,5.087900e+01,-1.005860e+02,1.767600e+01,-1.962900e+01,5.566400e+01,-6.250000e+00,5.556600e+01,3.750000e+01,75,-3.366210e+02,-3.789100e+01,-2.827150e+02,-1.183590e+02,2.705100e+01,1.504880e+02,-6.840000e-01,7.548800e+01
1.445300e+01,-8.546870e+02,4.677700e+01,-1.174800e+02,1.992200e+01,-2.197300e+01,5.654300e+01,-2.714800e+01,6.308600e+01,1.962900e+01,7.597700e+01,-3.790040e+02,-2.197300e+01,-3.113280e+02,-1.240230e+02,-2.148000e+00,1.458980e+02,-8.594000e+00,6.464800e+01
-4.590000e+00,-8.794920e+02,2.783200e+01,-1.390620e+02,1.425800e+01,-1.894500e+01,5.214800e+01,-4.834000e+01,6.240200e+01,-2.539000e+00,5.781300e+01,-3.947270e+02,-1.748000e+01,-3.432620e+02,-1.208980e+02,-3.349600e+01,1.302730e+02,-2.421900e+01,4.951200e+01
5.469000e+00,-8.608400e+02,4.521500e+01,-1.225590e+02,2.783200e+01,-3.515600e+01,7.187500e+01,-2.714800e+01,7.470700e+01,2.060500e+01,7.578100e+01,-3.875980e+02,-2.158200e+01,-3.352540e+02,-9.150400e+01,-6.348000e+00,1.430660e+02,-6.738000e+00,7.177700e+01
3.085900e+01,-8.314450e+02,1.014650e+02,-9.414100e+01,4.560500e+01,-50,8.076200e+01,-3.125000e+00,7.412100e+01,4.023400e+01,6.523400e+01,-3.690430e+02,-4.511700e+01,-2.958980e+02,-8.906300e+01,1.914100e+01,1.653320e+02,1.748000e+01,8.945300e+01
5.380900e+01,-7.975590e+02,9.003900e+01,-6.435500e+01,5.459000e+01,-5.703100e+01,1.029300e+02,2.031300e+01,9.199200e+01,6.474600e+01,1.148440e+02,-3.234380e+02,-2.910200e+01,-2.555660e+02,-6.250000e+01,4.755900e+01,1.802730e+02,3.535200e+01,1.117190e+02
5.322300e+01,-7.846680e+02,8.222700e+01,-5.429700e+01,5.781300e+01,-6.044900e+01,1.045900e+02,3.056600e+01,8.486300e+01,6.796900e+01,1.041990e+02,-3.077150e+02,-5.117200e+01,-2.565430e+02,-5.859400e+01,6.132800e+01,1.802730e+02,4.043000e+01,1.177730e+02
6.884800e+01,-7.612300e+02,1.014650e+02,-3.134800e+01,5.146500e+01,-5.576200e+01,1.072270e+02,5.224600e+01,8.252000e+01,8.476600e+01,1.414060e+02,-2.951170e+02,-3.701200e+01,-2.378910e+02,-4.218800e+01,8.271500e+01,1.957030e+02,5.341800e+01,1.319340e+02
5.996100e+01,-7.770510e+02,9.287100e+01,-4.726600e+01,3.828100e+01,-4.287100e+01,8.984400e+01,3.212900e+01,7.343700e+01,6.865200e+01,1.289060e+02,-3.120120e+02,-4.052700e+01,-2.428710e+02,-6.318400e+01,6.132800e+01,1.833980e+02,3.486300e+01,1.104490e+02
3.056600e+01,-8.131840e+02,6.757800e+01,-7.197300e+01,2.959000e+01,-3.339800e+01,7.060500e+01,8.790000e-01,6.308600e+01,4.111300e+01,7.939500e+01,-3.451170e+02,-4.355500e+01,-2.770510e+02,-8.632800e+01,2.636700e+01,1.597660e+02,8.301000e+00,8.281200e+01
2.373000e+01,-8.247070e+02,5.302700e+01,-8.418000e+01,1.591800e+01,-1.796900e+01,6.084000e+01,-1.318400e+01,6.357400e+01,3.291000e+01,8.603500e+01,-3.458980e+02,-3.896500e+01,-2.837890e+02,-1.013670e+02,1.923800e+01,1.561520e+02,-3.320000e+00,7.255900e+01
1.884800e+01,-8.455080e+02,5.078100e+01,-1.084960e+02,1.601600e+01,-1.855500e+01,5.351600e+01,-3.359400e+01,5.527300e+01,9.668000e+00,8.623000e+01,-3.922850e+02,-2.373000e+01,-3.208010e+02,-1.134770e+02,-5.566000e+00,1.504880e+02,-1.220700e+01,5.576200e+01
6.836000e+00,-8.665040e+02,3.056600e+01,-1.270510e+02,1.152300e+01,-1.591800e+01,4.658200e+01,-5.576200e+01,5.175800e+01,-7.715000e+00,6.591800e+01,-4.243160e+02,-1.718700e+01,-3.468750e+02,-1.257810e+02,-2.900400e+01,1.382810e+02,-2.646500e+01,3.916000e+01
2.099600e+01,-8.388670e+02,4.345700e+01,-9.882800e+01,2.666000e+01,-3.349600e+01,6.748000e+01,-3.466800e+01,6.748000e+01,1.298800e+01,7.265600e+01,-3.689450e+02,-1.582000e+01,-2.969730e+02,-1.034180e+02,-3.910000e-01,1.554690e+02,-7.129000e+00,6.103500e+01
4.453100e+01,-8.133790e+02,7.763700e+01,-8.183600e+01,4.619100e+01,-5.117200e+01,8.486300e+01,-1.308600e+01,7.460900e+01,3.388700e+01,9.472700e+01,-3.220700e+02,-1.416000e+01,-2.851560e+02,-8.261700e+01,2.412100e+01,1.760740e+02,1.806600e+01,8.320300e+01
6.377000e+01,-7.882810e+02,1.079100e+02,-5.810500e+01,5.263700e+01,-5.517600e+01,8.593700e+01,-2.930000e+00,6.533200e+01,3.339800e+01,1.215820e+02,-3.139650e+02,-3.066400e+01,-2.647460e+02,-8.056600e+01,2.968800e+01,1.920900e+02,3.369100e+01,8.964800e+01
6.845700e+01,-7.692380e+02,9.492200e+01,-3.652300e+01,4.755900e+01,-5.029300e+01,9.599600e+01,1.386700e+01,7.343700e+01,4.531200e+01,1.267580e+02,-3.012700e+02,-4.853500e+01,-2.438480e+02,-6.884800e+01,5.097700e+01,1.952150e+02,4.179700e+01,1.028320e+02
7.187500e+01,-7.575200e+02,1.038090e+02,-1.845700e+01,5.117200e+01,-5.625000e+01,1.034180e+02,2.197300e+01,7.431600e+01,6.367200e+01,1.330080e+02,-3.082030e+02,-5.683600e+01,-2.657230e+02,-5.752000e+01,5.625000e+01,2.019530e+02,5.234400e+01,1.130860e+02
4.921900e+01,-7.828120e+02,8.818400e+01,-4.677700e+01,3.701200e+01,-4.345700e+01,8.408200e+01,1.367000e+00,5.849600e+01,4.531200e+01,1.041990e+02,-3.313480e+02,-5.488300e+01,-2.825200e+02,-7.314500e+01,2.060500e+01,1.825200e+02,3.115200e+01,8.877000e+01
3.593800e+01,-8.031250e+02,7.246100e+01,-6.806600e+01,2.705100e+01,-3.252000e+01,7.128900e+01,-2.216800e+01,5.527300e+01,2.578100e+01,9.384800e+01,-3.297850e+02,-4.091800e+01,-2.656250e+02,-8.779300e+01,9.473000e+00,1.705080e+02,1.220700e+01,6.835900e+01
1.953100e+01,-8.283200e+02,5.380900e+01,-8.398400e+01,1.826200e+01,-2.187500e+01,6.005900e+01,-3.320300e+01,5.556600e+01,1.533200e+01,7.558600e+01,-3.533200e+02,-4.472700e+01,-2.820310e+02,-1.059570e+02,8.398000e+00,1.604490e+02,-5.860000e-01,5.752000e+01
1.543000e+01,-8.454100e+02,5.761700e+01,-1.039060e+02,2.089800e+01,-2.412100e+01,5.185500e+01,-4.580100e+01,5.293000e+01,2.344000e+00,5.664100e+01,-3.655270e+02,-4.375000e+01,-3.013670e+02,-1.243160e+02,-6.250000e+00,1.569340e+02,-6.543000e+00,4.707000e+01
3.910000e-01,-8.708010e+02,4.746100e+01,-1.405270e+02,1.523400e+01,-2.041000e+01,3.877000e+01,-6.855500e+01,4.267600e+01,-1.982400e+01,4.375000e+01,-3.816410e+02,-3.964800e+01,-3.314450e+02,-1.465820e+02,-3.339800e+01,1.411130e+02,-2.285200e+01,2.890600e+01
1.093700e+01,-8.495120e+02,4.375000e+01,-1.147460e+02,1.982400e+01,-2.548800e+01,4.970700e+01,-4.970700e+01,4.482400e+01,-1.562000e+00,7.763700e+01,-3.825200e+02,-3.974600e+01,-3.202150e+02,-1.309570e+02,-1.435500e+01,1.541020e+02,-7.422000e+00,4.814500e+01
3.310500e+01,-8.172850e+02,7.275400e+01,-8.134800e+01,3.964800e+01,-4.296900e+01,7.265600e+01,-2.421900e+01,5.761700e+01,1.894500e+01,9.404300e+01,-3.492190e+02,-3.798800e+01,-2.971680e+02,-9.824200e+01,7.813000e+00,1.753910e+02,1.757800e+01,7.294900e+01
4.531200e+01,-7.972660e+02,8.750000e+01,-6.425800e+01,4.960900e+01,-5.234400e+01,8.837900e+01,-7.422000e+00,6.621100e+01,3.037100e+01,1.105470e+02,-3.302730e+02,-3.750000e+01,-2.816410e+02,-7.353500e+01,1.933600e+01,1.853520e+02,3.330100e+01,8.984400e+01
5.039100e+01,-7.826170e+02,9.335900e+01,-5.605500e+01,4.834000e+01,-5.048800e+01,9.511700e+01,1.533200e+01,7.334000e+01,5.332000e+01,1.144530e+02,-3.110350e+02,-4.736300e+01,-2.486330e+02,-6.835900e+01,4.990200e+01,1.895510e+02,4.267600e+01,1.076170e+02
6.630900e+01,-7.587890e+02,1.155270e+02,-3.212900e+01,5.390600e+01,-5.615200e+01,1.049800e+02,3.574200e+01,8.017600e+01,7.197300e+01,1.157230e+02,-2.890630e+02,-6.513700e+01,-2.236330e+02,-6.650400e+01,6.826200e+01,2.047850e+02,5.849600e+01,1.251950e+02
4.433600e+01,-7.864260e+02,9.951200e+01,-5.351600e+01,3.701200e+01,-4.257800e+01,8.271500e+01,1.611300e+01,6.279300e+01,4.931600e+01,8.984400e+01,-3.172850e+02,-6.982400e+01,-2.517580e+02,-9.384800e+01,4.179700e+01,1.838870e+02,3.701200e+01,1.002930e+02
2.197300e+01,-8.166990e+02,7.334000e+01,-7.714800e+01,2.002000e+01,-2.460900e+01,6.601600e+01,-6.934000e+00,5.791000e+01,2.910200e+01,5.644500e+01,-3.597660e+02,-5.253900e+01,-2.976560e+02,-1.045900e+02,1.347700e+01,1.636720e+02,1.259800e+01,7.871100e+01
1.171900e+01,-8.293950e+02,3.857400e+01,-8.496100e+01,8.008000e+00,-1.093700e+01,5.488300e+01,-2.197300e+01,5.634800e+01,1.591800e+01,8.437500e+01,-3.428710e+02,-4.912100e+01,-2.922850e+02,-1.235350e+02,6.445000e+00,1.561520e+02,-2.832000e+00,6.611300e+01
-3.125000e+00,-8.578130e+02,3.173800e+01,-1.137700e+02,1.269500e+01,-1.416000e+01,4.453100e+01,-4.511700e+01,4.443400e+01,-7.129000e+00,5.507800e+01,-3.891600e+02,-7.041000e+01,-3.474610e+02,-1.369140e+02,-2.255900e+01,1.433590e+02,-1.435500e+01,4.804700e+01
-2.324200e+01,-8.904300e+02,3.056600e+01,-1.542970e+02,1.484400e+01,-1.914100e+01,3.789100e+01,-6.669900e+01,4.189500e+01,-2.246100e+01,1.552700e+01,-4.148440e+02,-5.507800e+01,-3.476560e+02,-1.416990e+02,-3.974600e+01,1.244140e+02,-3.115200e+01,3.164100e+01
8.301000e+00,-8.476560e+02,4.130900e+01,-1.104490e+02,1.367200e+01,-1.972700e+01,5.781300e+01,-3.544900e+01,6.728500e+01,1.347700e+01,9.140600e+01,-3.743160e+02,-1.435500e+01,-3.041020e+02,-1.155270e+02,-3.125000e+00,1.528320e+02,-8.008000e+00,6.396500e+01
2.236300e+01,-8.263670e+02,6.367200e+01,-8.759800e+01,3.076200e+01,-3.652300e+01,7.705100e+01,-1.533200e+01,7.343700e+01,3.056600e+01,1.106450e+02,-3.601560e+02,-1.884800e+01,-2.899410e+02,-9.638700e+01,1.123000e+01,1.666020e+02,1.308600e+01,8.398400e+01
3.798800e+01,-8.028320e+02,8.027300e+01,-6.865200e+01,4.013700e+01,-4.326200e+01,8.828100e+01,2.051000e+00,6.992200e+01,4.062500e+01,1.216800e+02,-3.310550e+02,-3.388700e+01,-2.675780e+02,-7.714800e+01,25,1.784180e+02,2.910200e+01,9.668000e+01
4.267600e+01,-7.897460e+02,8.984400e+01,-6.074200e+01,3.925800e+01,-4.179700e+01,8.798800e+01,2.226600e+01,6.562500e+01,5.625000e+01,1.191410e+02,-3.007810e+02,-4.873000e+01,-2.417970e+02,-7.373000e+01,5.439500e+01,1.825200e+02,3.730500e+01,1.076170e+02
5.175800e+01,-7.694340e+02,9.892600e+01,-4.043000e+01,4.580100e+01,-5.048800e+01,1.075200e+02,4.716800e+01,8.212900e+01,7.841800e+01,1.258790e+02,-2.886720e+02,-5.312500e+01,-2.258790e+02,-5.205100e+01,7.959000e+01,1.930660e+02,5.322300e+01,1.290040e+02
3.632800e+01,-7.923830e+02,8.710900e+01,-6.074200e+01,3.457000e+01,-4.140600e+01,9.550800e+01,2.373000e+01,7.275400e+01,5.468800e+01,1.118160e+02,-3.281250e+02,-5.058600e+01,-2.602540e+02,-6.552700e+01,4.599600e+01,1.758790e+02,3.359400e+01,1.063480e+02
1.699200e+01,-8.211910e+02,7.138700e+01,-8.505900e+01,2.158200e+01,-2.636700e+01,6.972700e+01,-4.004000e+00,5.439500e+01,2.978500e+01,8.994100e+01,-3.498050e+02,-4.853500e+01,-2.845700e+02,-9.873000e+01,1.787100e+01,1.582030e+02,9.180000e+00,7.822300e+01
4.004000e+00,-8.375980e+02,4.804700e+01,-8.925800e+01,1.084000e+01,-1.337900e+01,5.683600e+01,-2.627000e+01,5.195300e+01,1.689500e+01,6.709000e+01,-3.707030e+02,-4.687500e+01,-3.122070e+02,-1.173830e+02,-6.152000e+00,1.498050e+02,-6.641000e+00,6.347700e+01
1.758000e+00,-8.511720e+02,4.082000e+01,-9.755900e+01,8.789000e+00,-1.035200e+01,4.628900e+01,-4.023400e+01,4.658200e+01,5.078000e+00,5.820300e+01,-3.980470e+02,-4.785200e+01,-3.506840e+02,-1.288090e+02,-2.002000e+01,1.489260e+02,-1.298800e+01,5.175800e+01
-2.089800e+01,-8.908200e+02,1.855500e+01,-1.453130e+02,-9.770000e-01,-2.441000e+00,3.252000e+01,-5.546900e+01,3.994100e+01,-1.679700e+01,5.048800e+01,-4.311520e+02,-3.261700e+01,-3.631840e+02,-1.405270e+02,-3.798800e+01,1.262700e+02,-3.242200e+01,3.369100e+01
-5.176000e+00,-8.657230e+02,4.052700e+01,-1.238280e+02,1.416000e+01,-2.138700e+01,5.058600e+01,-4.677700e+01,5.097700e+01,-1.367000e+00,6.543000e+01,-3.772460e+02,-3.222700e+01,-3.326170e+02,-1.205080e+02,-1.660200e+01,1.442380e+02,-1.562500e+01,5.117200e+01
1.679700e+01,-8.334960e+02,6.826200e+01,-9.433600e+01,3.134800e+01,-3.496100e+01,6.826200e+01,-2.070300e+01,5.302700e+01,2.128900e+01,8.476600e+01,-3.688480e+02,-3.457000e+01,-3.002930e+02,-9.697300e+01,6.348000e+00,1.648440e+02,9.180000e+00,7.373000e+01
3.818400e+01,-8.040040e+02,9.912100e+01,-8.310500e+01,4.941400e+01,-5.224600e+01,9.013700e+01,4.980000e+00,6.953100e+01,4.560500e+01,9.570300e+01,-3.223630e+02,-3.867200e+01,-2.581050e+02,-6.992200e+01,3.447300e+01,1.791020e+02,2.988300e+01,9.716800e+01
3.701200e+01,-7.977540e+02,1.014650e+02,-7.421900e+01,5.009800e+01,-5.263700e+01,9.599600e+01,1.591800e+01,7.314500e+01,5.332000e+01,1.170900e+02,-3.030270e+02,-3.896500e+01,-2.607420e+02,-6.357400e+01,4.335900e+01,1.774410e+02,3.496100e+01,1.075200e+02
5.371100e+01,-7.695310e+02,1.004880e+02,-3.505900e+01,5.107400e+01,-5.507800e+01,1.141600e+02,3.613300e+01,9.043000e+01,7.627000e+01,1.473630e+02,-3.087890e+02,-4.697300e+01,-2.505860e+02,-4.218800e+01,5.957000e+01,1.926760e+02,5.156200e+01,1.310550e+02
4.111300e+01,-7.859370e+02,8.798800e+01,-5.791000e+01,3.984400e+01,-4.531200e+01,1.056640e+02,2.119100e+01,8.769500e+01,6.621100e+01,1.214840e+02,-2.993160e+02,-4.990200e+01,-2.413090e+02,-5.527300e+01,4.648400e+01,1.780270e+02,3.603500e+01,1.166990e+02
1.962900e+01,-8.170900e+02,7.314500e+01,-9.023400e+01,2.578100e+01,-3.085900e+01,8.066400e+01,-2.539000e+00,7.002000e+01,4.072300e+01,9.521500e+01,-3.273440e+02,-3.388700e+01,-2.810550e+02,-8.515600e+01,2.119100e+01,1.581050e+02,1.220700e+01,8.896500e+01
8.790000e-01,-8.421870e+02,5.048800e+01,-1.085940e+02,1.367200e+01,-1.582000e+01,6.533200e+01,-1.142600e+01,6.416000e+01,2.148400e+01,8.750000e+01,-3.475590e+02,-3.867200e+01,-2.949220e+02,-1.040040e+02,1.054700e+01,1.448240e+02,-4.980000e+00,7.421900e+01
5.860000e-01,-8.513670e+02,4.394500e+01,-1.155270e+02,1.464800e+01,-1.533200e+01,5.898400e+01,-2.451200e+01,5.888700e+01,1.084000e+01,8.017600e+01,-3.648440e+02,-3.652300e+01,-3.092770e+02,-1.130860e+02,-3.418000e+00,1.447270e+02,-1.084000e+01,6.347700e+01
-2.070300e+01,-8.830080e+02,2.548800e+01,-1.433590e+02,7.422000e+00,-1.132800e+01,4.521500e+01,-5.244100e+01,4.960900e+01,-5.762000e+00,6.005900e+01,-4.086910e+02,-2.246100e+01,-3.576170e+02,-1.269530e+02,-2.685500e+01,1.255860e+02,-3.056600e+01,4.296900e+01
-1.093700e+01,-8.658200e+02,4.648400e+01,-1.268550e+02,1.972700e+01,-2.656300e+01,5.986300e+01,-4.218800e+01,6.123000e+01,8.301000e+00,6.826200e+01,-3.921880e+02,-2.529300e+01,-3.193360e+02,-1.145510e+02,-4.785000e+00,1.371090e+02,-1.689500e+01,5.888700e+01
9.766000e+00,-8.354490e+02,8.544900e+01,-1.061520e+02,4.209000e+01,-4.658200e+01,7.099600e+01,-1.933600e+01,5.869100e+01,2.548800e+01,7.275400e+01,-3.525390e+02,-4.511700e+01,-2.894530e+02,-9.951200e+01,1.337900e+01,1.573240e+02,6.738000e+00,7.685500e+01
3.632800e+01,-8.035160e+02,8.945300e+01,-7.871100e+01,4.668000e+01,-5.058600e+01,8.867200e+01,5.762000e+00,6.709000e+01,4.794900e+01,1.099610e+02,-3.373050e+02,-3.388700e+01,-2.878910e+02,-7.119100e+01,2.695300e+01,1.771480e+02,2.597700e+01,9.716800e+01
4.179700e+01,-7.863280e+02,8.818400e+01,-5.507800e+01,3.847700e+01,-4.140600e+01,9.882800e+01,2.773400e+01,8.056600e+01,6.513700e+01,1.303710e+02,-3.360350e+02,-2.695300e+01,-2.676760e+02,-6.142600e+01,4.619100e+01,1.838870e+02,3.457000e+01,1.133790e+02
5.918000e+01,-7.621090e+02,1.262700e+02,-3.623000e+01,5.380900e+01,-5.839800e+01,1.149410e+02,4.619100e+01,9.160200e+01,8.427700e+01,1.415040e+02,-2.863280e+02,-4.287100e+01,-2.235350e+02,-4.433600e+01,7.246100e+01,2.001950e+02,5.341800e+01,1.329100e+02
3.662100e+01,-7.878910e+02,9.189500e+01,-5.810500e+01,4.531200e+01,-5.156200e+01,1.015630e+02,2.138700e+01,7.988300e+01,5.996100e+01,9.765600e+01,-3.058590e+02,-6.738300e+01,-2.508790e+02,-5.957000e+01,3.837900e+01,1.775390e+02,3.281200e+01,1.101560e+02
2.080100e+01,-8.119140e+02,6.191400e+01,-7.880900e+01,2.363300e+01,-2.851600e+01,7.421900e+01,1.465000e+00,5.859400e+01,4.091800e+01,9.834000e+01,-3.336910e+02,-4.316400e+01,-2.668950e+02,-8.320300e+01,1.992200e+01,1.618160e+02,9.473000e+00,8.457000e+01
1.035200e+01,-8.302730e+02,4.697300e+01,-9.502000e+01,6.738000e+00,-9.277000e+00,5.957000e+01,-6.738000e+00,5.908200e+01,3.525400e+01,1.006840e+02,-3.434570e+02,-3.212900e+01,-2.804690e+02,-1.018550e+02,2.158200e+01,1.551760e+02,-5.566000e+00,7.343700e+01
5.859000e+00,-8.429690e+02,4.912100e+01,-1.032230e+02,1.220700e+01,-1.455100e+01,5.869100e+01,-2.617200e+01,5.908200e+01,1.845700e+01,7.314500e+01,-3.666020e+02,-3.369100e+01,-3.165040e+02,-1.095700e+02,-6.840000e-01,1.544920e+02,-1.074200e+01,6.103500e+01
-1.181600e+01,-8.696290e+02,3.486300e+01,-1.261720e+02,6.445000e+00,-1.025400e+01,4.257800e+01,-5.546900e+01,4.482400e+01,-1.005900e+01,5.761700e+01,-3.951170e+02,-2.304700e+01,-3.431640e+02,-1.307620e+02,-3.193400e+01,1.380860e+02,-3.017600e+01,3.564500e+01
-3.711000e+00,-8.610350e+02,4.140600e+01,-1.284180e+02,1.572300e+01,-2.197300e+01,5.781300e+01,-4.091800e+01,5.927700e+01,7.813000e+00,7.197300e+01,-3.726560e+02,-2.412100e+01,-3.200200e+02,-1.198240e+02,-6.348000e+00,1.458010e+02,-1.709000e+01,5.312500e+01
1.543000e+01,-8.318360e+02,6.259800e+01,-9.619100e+01,3.144500e+01,-3.642600e+01,7.744100e+01,-1.953100e+01,6.962900e+01,2.998000e+01,9.287100e+01,-3.597660e+02,-3.515600e+01,-2.963870e+02,-1.023440e+02,1.543000e+01,1.658200e+02,7.422000e+00,7.646500e+01
3.105500e+01,-8.079100e+02,8.886700e+01,-6.699200e+01,4.209000e+01,-4.599600e+01,8.730500e+01,-3.613000e+00,6.669900e+01,3.789100e+01,1.086910e+02,-3.558590e+02,-4.511700e+01,-2.788090e+02,-8.564500e+01,2.773400e+01,1.800780e+02,2.509800e+01,8.662100e+01
3.437500e+01,-7.911130e+02,9.267600e+01,-5.195300e+01,3.994100e+01,-4.228500e+01,8.964800e+01,6.934000e+00,6.435500e+01,4.658200e+01,1.132810e+02,-3.432620e+02,-4.824200e+01,-2.894530e+02,-7.597700e+01,3.740200e+01,1.837890e+02,3.134800e+01,9.433600e+01
4.970700e+01,-7.645510e+02,1.024410e+02,-3.017600e+01,4.316400e+01,-4.619100e+01,1.053710e+02,3.281200e+01,7.841800e+01,7.138700e+01,1.233400e+02,-3.080080e+02,-5.976600e+01,-2.704100e+02,-5.615200e+01,5.986300e+01,1.975590e+02,4.912100e+01,1.173830e+02
4.765600e+01,-7.771480e+02,1.035160e+02,-4.404300e+01,3.779300e+01,-4.492200e+01,9.794900e+01,1.337900e+01,7.343700e+01,5.224600e+01,1.138670e+02,-3.087890e+02,-5.722700e+01,-2.566410e+02,-6.992200e+01,4.365200e+01,1.899410e+02,3.662100e+01,9.951200e+01
2.783200e+01,-8.043950e+02,7.861300e+01,-5.361300e+01,1.933600e+01,-2.568400e+01,6.796900e+01,-1.923800e+01,4.980500e+01,1.669900e+01,9.443400e+01,-3.543950e+02,-5.712900e+01,-2.864260e+02,-1.107420e+02,1.113300e+01,1.733400e+02,1.191400e+01,6.709000e+01
6.250000e+00,-8.304690e+02,5.039100e+01,-8.925800e+01,9.961000e+00,-1.308600e+01,6.035200e+01,-2.470700e+01,5.556600e+01,1.347700e+01,6.923800e+01,-3.533200e+02,-5.185500e+01,-2.948240e+02,-1.203120e+02,7.422000e+00,1.558590e+02,-4.785000e+00,5.849600e+01
-2.734000e+00,-8.470700e+02,4.365200e+01,-1.130860e+02,1.669900e+01,-1.933600e+01,7.041000e+01,-3.525400e+01,6.972700e+01,1.123000e+01,6.845700e+01,-3.536130e+02,-4.179700e+01,-2.988280e+02,-1.103520e+02,-5.664000e+00,1.511720e+02,-7.813000e+00,5.683600e+01
-1.923800e+01,-8.752930e+02,3.291000e+01,-1.414060e+02,9.961000e+00,-1.347700e+01,5.146500e+01,-6.103500e+01,5.332000e+01,-8.887000e+00,4.980500e+01,-3.846680e+02,-2.890600e+01,-3.257810e+02,-1.309570e+02,-3.496100e+01,1.356450e+02,-2.539100e+01,3.427700e+01
-1.328100e+01,-8.646480e+02,4.267600e+01,-1.192380e+02,1.357400e+01,-1.943400e+01,4.785200e+01,-5.312500e+01,4.248000e+01,-3.516000e+00,6.728500e+01,-3.869140e+02,-3.945300e+01,-3.242190e+02,-1.380860e+02,-2.578100e+01,1.457030e+02,-1.621100e+01,4.150400e+01
4.688000e+00,-8.379880e+02,6.777300e+01,-9.462900e+01,2.841800e+01,-3.320300e+01,6.416000e+01,-2.763700e+01,4.853500e+01,1.494100e+01,7.959000e+01,-3.712890e+02,-4.951200e+01,-2.894530e+02,-1.120120e+02,2.930000e+00,1.630860e+02,7.031000e+00,6.533200e+01
2.568400e+01,-8.100590e+02,9.394500e+01,-8.632800e+01,4.462900e+01,-4.892600e+01,8.701200e+01,-4.199000e+00,6.084000e+01,3.544900e+01,9.746100e+01,-3.138670e+02,-5.117200e+01,-2.546880e+02,-7.861300e+01,3.056600e+01,1.778320e+02,2.929700e+01,8.857400e+01
3.535200e+01,-7.905270e+02,9.189500e+01,-6.377000e+01,4.091800e+01,-4.345700e+01,9.082000e+01,1.298800e+01,6.152300e+01,5.068400e+01,1.131840e+02,-2.990230e+02,-4.502000e+01,-2.643550e+02,-6.816400e+01,3.984400e+01,1.852540e+02,3.740200e+01,1.018550e+02
4.560500e+01,-7.656250e+02,1.072270e+02,-2.910200e+01,4.502000e+01,-4.707000e+01,9.531200e+01,3.164100e+01,6.074200e+01,6.377000e+01,1.130860e+02,-3.088870e+02,-7.519500e+01,-2.669920e+02,-6.650400e+01,5.127000e+01,1.989260e+02,5.195300e+01,1.174800e+02
2.919900e+01,-7.873050e+02,9.951200e+01,-5.244100e+01,3.750000e+01,-4.365200e+01,8.750000e+01,1.523400e+01,5.781300e+01,5.058600e+01,9.257800e+01,-3.208010e+02,-8.437500e+01,-2.640620e+02,-8.945300e+01,4.179700e+01,1.816410e+02,3.681600e+01,1.021480e+02
1.445300e+01,-8.105470e+02,8.164100e+01,-7.919900e+01,2.187500e+01,-2.773400e+01,75,-3.418000e+00,5.761700e+01,3.310500e+01,9.023400e+01,-3.312500e+02,-4.550800e+01,-2.712890e+02,-1.056640e+02,2.646500e+01,1.673830e+02,1.709000e+01,8.544900e+01
-3.125000e+00,-8.340820e+02,3.896500e+01,-9.912100e+01,4.102000e+00,-6.543000e+00,6.377000e+01,-1.025400e+01,6.201200e+01,2.656300e+01,9.199200e+01,-3.324220e+02,-4.287100e+01,-2.819340e+02,-1.204100e+02,1.347700e+01,1.535160e+02,-9.770000e-01,7.666000e+01
-5.176000e+00,-8.474610e+02,4.003900e+01,-1.097660e+02,6.055000e+00,-6.836000e+00,5.146500e+01,-2.207000e+01,5.302700e+01,1.406200e+01,7.607400e+01,-3.579100e+02,-4.921900e+01,-2.959960e+02,-1.326170e+02,-5.566000e+00,1.513670e+02,-6.445000e+00,6.513700e+01
-2.529300e+01,-8.801760e+02,2.177700e+01,-1.390620e+02,-1.758000e+00,-2.148000e+00,3.515600e+01,-4.892600e+01,3.857400e+01,-1.621100e+01,5.615200e+01,-4.030270e+02,-3.906200e+01,-3.290040e+02,-1.437500e+02,-3.701200e+01,1.318360e+02,-2.636700e+01,4.160200e+01
-2.021500e+01,-8.664060e+02,3.173800e+01,-1.171870e+02,4.980000e+00,-1.181600e+01,4.023400e+01,-4.150400e+01,3.828100e+01,-1.035200e+01,5.488300e+01,-3.892580e+02,-4.091800e+01,-3.281250e+02,-1.389650e+02,-2.490200e+01,1.414060e+02,-1.689500e+01,5.058600e+01
4.880000e-01,-8.389650e+02,5.966800e+01,-1.007810e+02,2.402300e+01,-2.968800e+01,6.298800e+01,-2.031300e+01,4.970700e+01,2.070300e+01,6.464800e+01,-3.604490e+02,-5.634800e+01,-3.036130e+02,-1.106450e+02,6.934000e+00,1.598630e+02,7.520000e+00,7.734400e+01
1.142600e+01,-8.231450e+02,8.095700e+01,-9.804700e+01,4.531200e+01,-4.834000e+01,8.339800e+01,-1.367000e+00,5.771500e+01,4.218800e+01,6.093700e+01,-3.590820e+02,-6.865200e+01,-2.905270e+02,-8.330100e+01,2.666000e+01,1.666990e+02,2.597700e+01,9.560500e+01
2.109400e+01,-8.008790e+02,8.574200e+01,-7.089800e+01,3.701200e+01,-3.857400e+01,9.375000e+01,2.353500e+01,7.187500e+01,5.947300e+01,1.117190e+02,-3.306640e+02,-3.955100e+01,-2.676760e+02,-6.279300e+01,4.736300e+01,1.758790e+02,3.652300e+01,1.131840e+02
3.740200e+01,-7.745120e+02,1.135740e+02,-4.296900e+01,4.550800e+01,-4.804700e+01,1.123050e+02,4.433600e+01,8.798800e+01,7.441400e+01,1.379880e+02,-3.000980e+02,-5.156200e+01,-2.513670e+02,-4.775400e+01,6.543000e+01,1.932620e+02,5.556600e+01,1.343750e+02
1.640600e+01,-7.982420e+02,9.628900e+01,-5.498000e+01,3.134800e+01,-3.710900e+01,9.951200e+01,2.382800e+01,7.880900e+01,5.449200e+01,9.951200e+01,-3.480470e+02,-7.109400e+01,-2.829100e+02,-6.972700e+01,3.085900e+01,1.759770e+02,3.916000e+01,1.156250e+02
-6.840000e-01,-8.249020e+02,6.250000e+01,-8.183600e+01,1.367200e+01,-1.865200e+01,6.503900e+01,3.223000e+00,4.521500e+01,3.642600e+01,9.316400e+01,-3.603520e+02,-5.898400e+01,-2.890630e+02,-1.025390e+02,1.855500e+01,1.579100e+02,1.416000e+01,8.632800e+01
-4.883000e+00,-8.381840e+02,5.771500e+01,-1.096680e+02,1.035200e+01,-1.181600e+01,5.273400e+01,-1.240200e+01,4.150400e+01,2.773400e+01,7.734400e+01,-3.430660e+02,-4.794900e+01,-3.042970e+02,-1.116210e+02,1.142600e+01,1.516600e+02,-5.860000e-01,7.246100e+01
-1.503900e+01,-8.557620e+02,4.658200e+01,-1.239260e+02,1.269500e+01,-1.406200e+01,5.927700e+01,-2.509800e+01,5.556600e+01,1.835900e+01,7.089800e+01,-3.699220e+02,-3.085900e+01,-3.184570e+02,-1.073240e+02,-5.957000e+00,1.458980e+02,-7.031000e+00,6.630900e+01
-3.115200e+01,-8.827150e+02,2.724600e+01,-1.489260e+02,7.031000e+00,-9.668000e+00,5.009800e+01,-4.697300e+01,5.058600e+01,-3.613000e+00,6.337900e+01,-3.930660e+02,-1.777300e+01,-3.533200e+02,-1.185550e+02,-3.242200e+01,1.302730e+02,-25,4.648400e+01
-3.310500e+01,-8.793950e+02,3.222700e+01,-1.296870e+02,7.715000e+00,-1.367200e+01,4.707000e+01,-4.160200e+01,4.443400e+01,-3.320000e+00,5.595700e+01,-4.227540e+02,-3.642600e+01,-3.754880e+02,-1.264650e+02,-3.330100e+01,1.345700e+02,-2.158200e+01,4.931600e+01
-1.562000e+00,-8.387700e+02,6.982400e+01,-9.179700e+01,2.832000e+01,-3.398400e+01,6.689500e+01,-1.650400e+01,5.595700e+01,2.480500e+01,8.007800e+01,-3.890630e+02,-4.550800e+01,-3.040040e+02,-1.036130e+02,6.840000e-01,1.625000e+02,5.859000e+00,7.548800e+01
2.607400e+01,-8.057620e+02,9.091800e+01,-8.222700e+01,4.619100e+01,-4.863300e+01,9.853500e+01,8.594000e+00,8.183600e+01,5.263700e+01,1.180660e+02,-3.377930e+02,-3.613300e+01,-2.746090e+02,-6.835900e+01,2.744100e+01,1.801760e+02,3.027300e+01,1.036130e+02
2.519500e+01,-7.999020e+02,9.677700e+01,-7.880900e+01,4.599600e+01,-4.834000e+01,1.075200e+02,1.865200e+01,8.896500e+01,5.918000e+01,1.188480e+02,-3.309570e+02,-4.257800e+01,-2.835940e+02,-6.240200e+01,3.642600e+01,1.784180e+02,3.554700e+01,1.126950e+02
3.183600e+01,-7.807620e+02,1.071290e+02,-5.429700e+01,5.058600e+01,-5.332000e+01,1.206050e+02,4.023400e+01,9.570300e+01,7.490200e+01,1.314450e+02,-3.235350e+02,-5.214800e+01,-2.701170e+02,-4.570300e+01,5.859400e+01,1.876950e+02,50,1.311520e+02
3.339800e+01,-7.799800e+02,9.892600e+01,-4.980500e+01,4.169900e+01,-4.677700e+01,1.055660e+02,3.330100e+01,8.144500e+01,6.757800e+01,1.223630e+02,-3.292970e+02,-5.634800e+01,-2.471680e+02,-5.664100e+01,5.087900e+01,1.844730e+02,3.964800e+01,1.166990e+02
2.197300e+01,-8.008790e+02,7.929700e+01,-7.529300e+01,2.812500e+01,-3.232400e+01,8.515600e+01,1.562500e+01,6.865200e+01,5.468800e+01,1.069340e+02,-3.248050e+02,-4.218800e+01,-2.554690e+02,-7.558600e+01,3.877000e+01,1.680660e+02,1.757800e+01,9.502000e+01
3.320000e+00,-8.260740e+02,6.337900e+01,-9.306600e+01,1.660200e+01,-1.845700e+01,6.543000e+01,-9.863000e+00,5.673800e+01,3.525400e+01,8.613300e+01,-3.434570e+02,-3.515600e+01,-2.894530e+02,-9.531200e+01,1.572300e+01,1.543950e+02,-1.855000e+00,7.373000e+01
-3.711000e+00,-8.441410e+02,5.410200e+01,-1.079100e+02,1.865200e+01,-1.943400e+01,6.582000e+01,-2.666000e+01,6.220700e+01,1.972700e+01,8.457000e+01,-3.704100e+02,-2.822300e+01,-3.102540e+02,-9.335900e+01,-2.539000e+00,150,-7.715000e+00,6.533200e+01
-2.451200e+01,-8.781250e+02,4.316400e+01,-1.475590e+02,1.709000e+01,-2.109400e+01,5.439500e+01,-5.673800e+01,5.507800e+01,-8.789000e+00,4.873000e+01,-3.950200e+02,-3.740200e+01,-3.455080e+02,-1.136720e+02,-3.896500e+01,1.294920e+02,-2.753900e+01,4.199200e+01
-2.304700e+01,-8.730470e+02,3.925800e+01,-1.402340e+02,1.943400e+01,-2.587900e+01,5.781300e+01,-4.921900e+01,5.556600e+01,6.840000e-01,6.103500e+01,-4.036130e+02,-3.281200e+01,-3.464840e+02,-1.133790e+02,-2.822300e+01,1.337890e+02,-2.285200e+01,5.039100e+01
6.738000e+00,-8.334960e+02,7.187500e+01,-1.166990e+02,3.300800e+01,-4.003900e+01,8.320300e+01,-1.289100e+01,7.441400e+01,3.476600e+01,1.042970e+02,-3.481450e+02,-1.669900e+01,-2.946290e+02,-8.906300e+01,1.630900e+01,1.593750e+02,5.859000e+00,8.330100e+01
2.656300e+01,-8.043950e+02,1.098630e+02,-8.662100e+01,5.117200e+01,-5.585900e+01,1.024410e+02,5.859000e+00,8.378900e+01,5.351600e+01,1.073240e+02,-3.338870e+02,-3.242200e+01,-2.671880e+02,-7.275400e+01,2.988300e+01,1.783200e+02,2.910200e+01,1.029300e+02
3.310500e+01,-7.887700e+02,9.433600e+01,-6.777300e+01,4.560500e+01,-4.960900e+01,1.069340e+02,2.480500e+01,8.398400e+01,6.709000e+01,1.338870e+02,-3.133790e+02,-2.529300e+01,-2.518550e+02,-5.654300e+01,4.687500e+01,1.842770e+02,3.554700e+01,1.135740e+02
5.117200e+01,-7.570310e+02,1.114260e+02,-3.798800e+01,5.410200e+01,-5.693400e+01,1.174800e+02,4.804700e+01,9.052700e+01,8.447300e+01,1.480470e+02,-2.861330e+02,-3.339800e+01,-2.417970e+02,-3.486300e+01,7.382800e+01,2.026370e+02,5.361300e+01,1.323240e+02
4.521500e+01,-7.671880e+02,1.099610e+02,-4.609400e+01,4.326200e+01,-4.814500e+01,1.056640e+02,3.535200e+01,7.890600e+01,6.982400e+01,1.261720e+02,-3.208980e+02,-4.804700e+01,-2.549800e+02,-5.107400e+01,5.439500e+01,1.942380e+02,4.257800e+01,1.165040e+02
1.914100e+01,-8.028320e+02,8.945300e+01,-7.783200e+01,2.666000e+01,-3.173800e+01,8.496100e+01,1.142600e+01,7.070300e+01,4.931600e+01,9.677700e+01,-3.509770e+02,-5.410200e+01,-2.782230e+02,-7.695300e+01,2.890600e+01,1.710940e+02,1.787100e+01,9.209000e+01
-1.435500e+01,-8.372070e+02,5.488300e+01,-9.726600e+01,1.220700e+01,-1.572300e+01,6.640600e+01,-1.162100e+01,6.269500e+01,3.046900e+01,5.908200e+01,-3.573240e+02,-6.718800e+01,-3.098630e+02,-1.011720e+02,7.813000e+00,1.486330e+02,-5.566000e+00,7.236300e+01
-1.796900e+01,-8.536130e+02,5.117200e+01,-1.187500e+02,2.334000e+01,-2.714800e+01,6.943400e+01,-3.164100e+01,6.748000e+01,1.445300e+01,3.925800e+01,-3.825200e+02,-4.492200e+01,-3.364260e+02,-1.000980e+02,-1.044900e+01,1.436520e+02,-1.220700e+01,6.103500e+01
-1.738300e+01,-8.657230e+02,3.789100e+01,-1.384770e+02,8.691000e+00,-1.357400e+01,6.171900e+01,-4.326200e+01,6.699200e+01,2.637000e+00,8.574200e+01,-3.910160e+02,-1.054700e+01,-3.452150e+02,-1.082030e+02,-2.373000e+01,1.397460e+02,-2.334000e+01,4.775400e+01
-1.357400e+01,-8.558590e+02,3.906200e+01,-1.236330e+02,1.025400e+01,-1.718700e+01,5.820300e+01,-3.378900e+01,6.240200e+01,1.230500e+01,9.550800e+01,-3.757810e+02,-1.943400e+01,-3.220700e+02,-1.118160e+02,-9.277000e+00,1.459960e+02,-1.816400e+01,5.332000e+01
3.809000e+00,-8.321290e+02,6.845700e+01,-1.022460e+02,3.095700e+01,-3.642600e+01,8.173800e+01,-9.277000e+00,75,3.320300e+01,1.027340e+02,-3.464840e+02,-2.246100e+01,-2.864260e+02,-8.173800e+01,1.621100e+01,1.644530e+02,7.129000e+00,7.773400e+01
2.343800e+01,-8.049800e+02,9.169900e+01,-8.300800e+01,4.609400e+01,-4.843800e+01,1.010740e+02,8.887000e+00,8.232400e+01,4.140600e+01,1.257810e+02,-3.243160e+02,-2.890600e+01,-2.729490e+02,-6.084000e+01,2.226600e+01,1.807620e+02,2.890600e+01,9.531200e+01
3.349600e+01,-7.864260e+02,9.785200e+01,-6.855500e+01,4.209000e+01,-4.462900e+01,9.785200e+01,2.119100e+01,7.363300e+01,5.371100e+01,1.312500e+02,-3.118160e+02,-4.658200e+01,-2.614260e+02,-6.728500e+01,4.023400e+01,1.860350e+02,3.544900e+01,1.011720e+02
4.794900e+01,-7.591800e+02,1.234370e+02,-3.701200e+01,4.794900e+01,-5.136700e+01,1.041020e+02,4.003900e+01,7.324200e+01,7.734400e+01,1.285160e+02,-2.938480e+02,-5.048800e+01,-2.378910e+02,-5.214800e+01,7.050800e+01,2.021480e+02,5.224600e+01,1.179690e+02
3.515600e+01,-7.749020e+02,1.213870e+02,-4.931600e+01,4.150400e+01,-4.755900e+01,9.746100e+01,2.724600e+01,6.787100e+01,6.484400e+01,1.152340e+02,-3.126950e+02,-5.341800e+01,-2.726560e+02,-6.308600e+01,5.068400e+01,1.907230e+02,4.287100e+01,1.063480e+02
1.025400e+01,-8.090820e+02,7.490200e+01,-7.763700e+01,2.119100e+01,-2.666000e+01,7.802700e+01,4.492000e+00,5.966800e+01,3.906200e+01,9.677700e+01,-3.574220e+02,-4.912100e+01,-3.129880e+02,-9.101600e+01,2.334000e+01,1.667970e+02,1.767600e+01,8.291000e+01
-4.688000e+00,-8.288090e+02,5.752000e+01,-9.316400e+01,1.005900e+01,-1.377000e+01,6.748000e+01,-1.640600e+01,5.976600e+01,2.314500e+01,7.539100e+01,-3.660160e+02,-4.892600e+01,-2.868160e+02,-1.036130e+02,1.298800e+01,1.566410e+02,1.950000e-01,6.806600e+01
-1.132800e+01,-8.458010e+02,5.341800e+01,-1.090820e+02,1.015600e+01,-1.386700e+01,6.337900e+01,-3.271500e+01,5.859400e+01,1.240200e+01,7.294900e+01,-3.825200e+02,-4.628900e+01,-3.136720e+02,-1.106450e+02,-2.344000e+00,1.525390e+02,-7.031000e+00,5.859400e+01
-3.076200e+01,-8.769530e+02,3.242200e+01,-1.413090e+02,4.297000e+00,-7.520000e+00,5.127000e+01,-5.058600e+01,4.892600e+01,-5.859000e+00,6.279300e+01,-4.087890e+02,-3.349600e+01,-3.465820e+02,-1.252930e+02,-2.685500e+01,1.337890e+02,-2.363300e+01,4.013700e+01
-2.353500e+01,-8.655270e+02,4.248000e+01,-1.371090e+02,1.455100e+01,-2.002000e+01,5.918000e+01,-4.502000e+01,5.351600e+01,3.910000e-01,7.656300e+01,-3.679690e+02,-2.441400e+01,-3.191410e+02,-1.158200e+02,-9.180000e+00,1.411130e+02,-1.709000e+01,4.785200e+01
-7.227000e+00,-8.397460e+02,6.367200e+01,-1.107420e+02,2.959000e+01,-3.535200e+01,7.705100e+01,-2.138700e+01,6.386700e+01,2.207000e+01,7.871100e+01,-3.560550e+02,-5.576200e+01,-3.036130e+02,-1.016600e+02,1.552700e+01,1.586910e+02,5.078000e+00,7.314500e+01
8.594000e+00,-8.200200e+02,9.130900e+01,-9.169900e+01,4.541000e+01,-4.931600e+01,8.798800e+01,-1.093700e+01,6.289100e+01,2.978500e+01,8.544900e+01,-3.541020e+02,-6.015600e+01,-3.080080e+02,-8.613300e+01,1.640600e+01,1.715820e+02,2.431600e+01,8.750000e+01
2.285200e+01,-7.971680e+02,1.030270e+02,-7.050800e+01,4.062500e+01,-4.511700e+01,9.306600e+01,8.887000e+00,7.080100e+01,4.882800e+01,1.014650e+02,-3.305660e+02,-4.970700e+01,-2.680660e+02,-7.607400e+01,3.857400e+01,1.823240e+02,3.515600e+01,1.036130e+02
4.003900e+01,-7.629880e+02,1.058590e+02,-3.574200e+01,4.502000e+01,-4.863300e+01,1.103520e+02,4.111300e+01,8.261700e+01,7.666000e+01,1.385740e+02,-2.880860e+02,-4.804700e+01,-2.209960e+02,-5.273400e+01,7.343700e+01,1.993160e+02,5.302700e+01,1.276370e+02
3.261700e+01,-7.704100e+02,9.960900e+01,-3.984400e+01,3.710900e+01,-4.189500e+01,1.033200e+02,3.242200e+01,7.119100e+01,6.533200e+01,1.253910e+02,-2.951170e+02,-5.761700e+01,-2.347660e+02,-5.898400e+01,5.644500e+01,1.911130e+02,4.472700e+01,1.158200e+02
6.641000e+00,-8.082030e+02,8.662100e+01,-7.441400e+01,2.070300e+01,-2.802700e+01,7.724600e+01,5.078000e+00,5.380900e+01,3.896500e+01,7.343700e+01,-3.312500e+02,-6.640600e+01,-2.676760e+02,-8.964800e+01,3.154300e+01,1.672850e+02,1.816400e+01,8.691400e+01
-1.455100e+01,-8.365230e+02,6.093700e+01,-9.648400e+01,6.055000e+00,-1.162100e+01,6.113300e+01,-1.640600e+01,5.039100e+01,2.226600e+01,5.673800e+01,-3.618160e+02,-5.156200e+01,-2.904300e+02,-1.047850e+02,1.240200e+01,1.508790e+02,-2.734000e+00,6.953100e+01
-2.021500e+01,-8.547850e+02,5.585900e+01,-1.196290e+02,8.496000e+00,-1.230500e+01,5.878900e+01,-2.812500e+01,5.585900e+01,1.347700e+01,5.878900e+01,-3.705080e+02,-5.810500e+01,-3.073240e+02,-1.190430e+02,-1.953000e+00,1.464840e+02,-9.082000e+00,6.230500e+01
-2.812500e+01,-8.752930e+02,3.339800e+01,-1.407230e+02,2.441000e+00,-5.469000e+00,4.834000e+01,-4.814500e+01,5.078100e+01,-3.320000e+00,6.962900e+01,-3.791020e+02,-4.345700e+01,-3.453120e+02,-1.375000e+02,-2.968800e+01,1.374020e+02,-2.294900e+01,4.589800e+01
-2.490200e+01,-8.721680e+02,2.753900e+01,-1.327150e+02,3.809000e+00,-8.887000e+00,4.941400e+01,-4.648400e+01,4.873000e+01,-5.469000e+00,8.769500e+01,-3.976560e+02,-2.617200e+01,-3.565430e+02,-1.335940e+02,-2.685500e+01,1.424800e+02,-2.080100e+01,4.902300e+01
-4.688000e+00,-8.390630e+02,5.761700e+01,-9.150400e+01,2.187500e+01,-2.695300e+01,7.099600e+01,-2.050800e+01,6.132800e+01,1.728500e+01,9.169900e+01,-3.825200e+02,-3.525400e+01,-3.131840e+02,-1.073240e+02,6.840000e-01,1.647460e+02,3.809000e+00,7.392600e+01
1.699200e+01,-8.093750e+02,8.828100e+01,-7.871100e+01,3.925800e+01,-4.209000e+01,8.896500e+01,5.860000e-01,6.953100e+01,3.691400e+01,1.139650e+02,-3.388670e+02,-4.111300e+01,-2.937500e+02,-8.388700e+01,1.943400e+01,1.813480e+02,2.714800e+01,9.453100e+01
1.669900e+01,-8.027340e+02,8.896500e+01,-7.275400e+01,3.447300e+01,-3.613300e+01,8.857400e+01,1.269500e+01,6.318400e+01,4.736300e+01,1.123050e+02,-3.453120e+02,-5.205100e+01,-2.904300e+02,-7.812500e+01,2.939500e+01,1.814450e+02,3.193400e+01,1.020510e+02
3.935500e+01,-7.613280e+02,1.100590e+02,-2.431600e+01,4.082000e+01,-4.355500e+01,9.472700e+01,3.750000e+01,6.474600e+01,7.216800e+01,1.130860e+02,-3.133790e+02,-7.402300e+01,-2.471680e+02,-7.431600e+01,6.503900e+01,2.036130e+02,5.058600e+01,1.211910e+02
2.939500e+01,-7.694340e+02,1.039060e+02,-3.603500e+01,4.169900e+01,-4.785200e+01,8.837900e+01,2.910200e+01,5.791000e+01,6.025400e+01,8.134800e+01,-3.193360e+02,-9.091800e+01,-2.487300e+02,-8.310500e+01,5.127000e+01,1.920900e+02,4.199200e+01,1.101560e+02
1.484400e+01,-7.999020e+02,8.183600e+01,-8.984400e+01,2.353500e+01,-2.929700e+01,8.515600e+01,1.796900e+01,7.080100e+01,4.941400e+01,1.084960e+02,-3.064450e+02,-4.082000e+01,-2.553710e+02,-7.959000e+01,4.209000e+01,1.724610e+02,2.187500e+01,9.794900e+01
-3.125000e+00,-8.269530e+02,6.875000e+01,-1.061520e+02,9.961000e+00,-1.347700e+01,6.816400e+01,-8.203000e+00,6.630900e+01,2.919900e+01,9.668000e+01,-3.442380e+02,-3.769500e+01,-2.968750e+02,-1.021480e+02,1.591800e+01,1.587890e+02,1.367000e+00,7.783200e+01
-9.082000e+00,-8.371090e+02,5.546900e+01,-1.055660e+02,9.082000e+00,-1.025400e+01,5.898400e+01,-2.587900e+01,5.507800e+01,1.543000e+01,7.832000e+01,-3.608400e+02,-4.355500e+01,-3.144530e+02,-1.120120e+02,-6.934000e+00,1.582030e+02,-5.762000e+00,6.396500e+01
-2.138700e+01,-8.670900e+02,4.277300e+01,-1.393550e+02,6.738000e+00,-9.180000e+00,50,-4.492200e+01,4.873000e+01,-5.078000e+00,6.259800e+01,-3.897460e+02,-3.818400e+01,-3.417970e+02,-1.245120e+02,-3.007800e+01,1.454100e+02,-2.060500e+01,4.511700e+01
-2.246100e+01,-8.663090e+02,3.886700e+01,-1.331050e+02,6.445000e+00,-1.162100e+01,4.668000e+01,-4.443400e+01,4.707000e+01,-2.246000e+00,5.947300e+01,-4.069340e+02,-3.798800e+01,-3.423830e+02,-1.269530e+02,-2.627000e+01,1.457030e+02,-2.148400e+01,4.677700e+01
2.441000e+00,-8.319340e+02,7.597700e+01,-1.006840e+02,2.177700e+01,-2.656300e+01,5.673800e+01,-2.197300e+01,4.668000e+01,2.002000e+01,8.291000e+01,-3.594730e+02,-4.072300e+01,-3.102540e+02,-1.125000e+02,6.840000e-01,1.681640e+02,1.660000e+00,6.777300e+01
2.197300e+01,-8.086910e+02,1.094730e+02,-8.271500e+01,3.701200e+01,-4.003900e+01,7.265600e+01,2.637000e+00,4.804700e+01,3.828100e+01,9.785200e+01,-3.366210e+02,-4.267600e+01,-2.817380e+02,-9.492200e+01,3.017600e+01,1.850590e+02,2.334000e+01,8.632800e+01
2.734400e+01,-7.949220e+02,9.531200e+01,-7.392600e+01,4.169900e+01,-4.355500e+01,8.691400e+01,1.552700e+01,5.673800e+01,5.019500e+01,1.275390e+02,-3.224610e+02,-2.734400e+01,-2.841800e+02,-7.197300e+01,4.013700e+01,1.857420e+02,3.115200e+01,9.912100e+01
3.349600e+01,-7.708980e+02,1.011720e+02,-4.257800e+01,4.502000e+01,-4.541000e+01,1.013670e+02,3.916000e+01,6.875000e+01,7.168000e+01,1.251950e+02,-3.180660e+02,-6.123000e+01,-2.619140e+02,-5.800800e+01,6.210900e+01,1.965820e+02,4.687500e+01,1.210940e+02
2.705100e+01,-7.761720e+02,1.019530e+02,-4.794900e+01,4.462900e+01,-4.765600e+01,1.063480e+02,3.496100e+01,7.607400e+01,6.933600e+01,1.120120e+02,-3.186520e+02,-6.113300e+01,-2.452150e+02,-5.439500e+01,5.634800e+01,1.895510e+02,4.345700e+01,1.184570e+02
1.123000e+01,-8.022460e+02,8.193400e+01,-7.910200e+01,2.705100e+01,-3.115200e+01,1.006840e+02,1.435500e+01,8.466800e+01,5.214800e+01,1.131840e+02,-3.237300e+02,-4.238300e+01,-2.703130e+02,-6.611300e+01,3.515600e+01,1.713870e+02,2.265600e+01,1.019530e+02
-1.054700e+01,-8.303710e+02,6.074200e+01,-9.443400e+01,1.220700e+01,-1.396500e+01,7.412100e+01,-8.789000e+00,6.416000e+01,3.144500e+01,8.867200e+01,-3.468750e+02,-3.652300e+01,-3.040040e+02,-9.658200e+01,1.162100e+01,1.556640e+02,-1.074000e+00,7.753900e+01
-2.207000e+01,-8.504880e+02,4.775400e+01,-1.110350e+02,2.930000e+00,-5.762000e+00,4.892600e+01,-2.275400e+01,4.072300e+01,1.660200e+01,7.187500e+01,-3.883790e+02,-5.439500e+01,-3.592770e+02,-1.272460e+02,-9.082000e+00,1.480470e+02,-1.386700e+01,5.927700e+01
-3.369100e+01,-8.753910e+02,3.476600e+01,-1.437500e+02,1.562000e+00,-4.980000e+00,4.414100e+01,-4.033200e+01,3.945300e+01,1.367000e+00,7.158200e+01,-4.144530e+02,-3.740200e+01,-3.534180e+02,-1.274410e+02,-2.753900e+01,1.342770e+02,-2.724600e+01,4.375000e+01
-2.714800e+01,-8.667970e+02,4.267600e+01,-1.408200e+02,1.425800e+01,-1.904300e+01,5.683600e+01,-4.853500e+01,5.175800e+01,2.148000e+00,8.076200e+01,-3.674800e+02,-1.650400e+01,-3.040040e+02,-1.104490e+02,-1.855500e+01,1.400390e+02,-2.324200e+01,4.912100e+01
-1.357400e+01,-8.442380e+02,6.152300e+01,-1.180660e+02,2.705100e+01,-3.369100e+01,7.353500e+01,-2.334000e+01,6.113300e+01,2.373000e+01,9.589800e+01,-3.473630e+02,-2.304700e+01,-2.720700e+02,-9.111300e+01,8.691000e+00,1.558590e+02,-2.344000e+00,7.148400e+01
8.496000e+00,-8.180660e+02,8.671900e+01,-9.687500e+01,4.394500e+01,-4.580100e+01,9.746100e+01,4.880000e-01,7.587900e+01,4.628900e+01,1.204100e+02,-3.491210e+02,-2.353500e+01,-2.738280e+02,-6.543000e+01,3.154300e+01,1.735350e+02,2.226600e+01,9.560500e+01
1.709000e+01,-8.006840e+02,9.707000e+01,-7.919900e+01,4.414100e+01,-4.560500e+01,1.009770e+02,7.617000e+00,7.304700e+01,5.410200e+01,1.257810e+02,-3.325200e+02,-3.994100e+01,-2.753910e+02,-6.084000e+01,4.189500e+01,1.793950e+02,3.066400e+01,1.036130e+02
2.949200e+01,-7.735350e+02,1.133790e+02,-4.785200e+01,4.834000e+01,-5.068400e+01,1.095700e+02,2.890600e+01,8.037100e+01,7.480500e+01,1.147460e+02,-3.023440e+02,-6.377000e+01,-2.556640e+02,-5.127000e+01,6.650400e+01,1.929690e+02,4.599600e+01,1.222660e+02
2.871100e+01,-7.688480e+02,1.123050e+02,-3.798800e+01,4.335900e+01,-4.775400e+01,1.064450e+02,3.183600e+01,7.587900e+01,6.972700e+01,1.186520e+02,-3.031250e+02,-6.318400e+01,-2.534180e+02,-5.498000e+01,5.595700e+01,1.923830e+02,4.404300e+01,1.166990e+02
6.250000e+00,-8.033200e+02,8.710900e+01,-7.128900e+01,2.568400e+01,-3.056600e+01,8.759800e+01,8.789000e+00,6.621100e+01,4.785200e+01,1.069340e+02,-3.295900e+02,-5.703100e+01,-2.796870e+02,-75,3.007800e+01,1.710940e+02,2.031300e+01,9.140600e+01
-1.660200e+01,-8.357420e+02,7.705100e+01,-1.000980e+02,1.152300e+01,-1.513700e+01,6.591800e+01,-1.386700e+01,5.576200e+01,2.656300e+01,6.181600e+01,-3.704100e+02,-6.044900e+01,-3.137700e+02,-1.050780e+02,7.910000e+00,1.524410e+02,-2.637000e+00,6.826200e+01
-2.070300e+01,-8.495120e+02,6.074200e+01,-1.154300e+02,8.691000e+00,-1.142600e+01,6.064500e+01,-2.460900e+01,5.654300e+01,1.679700e+01,6.523400e+01,-3.854490e+02,-3.984400e+01,-3.229490e+02,-1.150390e+02,-4.492000e+00,1.495120e+02,-1.162100e+01,5.937500e+01
-2.421900e+01,-8.640630e+02,3.896500e+01,-1.414060e+02,5.859000e+00,-9.473000e+00,5.957000e+01,-3.486300e+01,6.543000e+01,1.337900e+01,7.851600e+01,-3.751950e+02,-2.412100e+01,-3.189450e+02,-1.093750e+02,-9.570000e+00,1.421880e+02,-2.128900e+01,5.078100e+01
-2.900400e+01,-8.673830e+02,3.330100e+01,-1.386720e+02,7.324000e+00,-1.416000e+01,5.644500e+01,-4.345700e+01,6.318400e+01,1.015600e+01,7.959000e+01,-3.820310e+02,-1.845700e+01,-3.307620e+02,-1.107420e+02,-1.181600e+01,1.400390e+02,-2.480500e+01,4.599600e+01
-1.435500e+01,-8.415040e+02,5.478500e+01,-1.093750e+02,2.265600e+01,-3.076200e+01,7.851600e+01,-2.627000e+01,7.294900e+01,2.519500e+01,8.955100e+01,-3.745120e+02,-2.226600e+01,-3.224610e+02,-8.232400e+01,3.809000e+00,1.572270e+02,-3.711000e+00,6.669900e+01
1.103500e+01,-8.131840e+02,8.701200e+01,-8.134800e+01,3.916000e+01,-4.365200e+01,9.628900e+01,-7.520000e+00,7.587900e+01,3.486300e+01,1.078120e+02,-3.621090e+02,-2.617200e+01,-2.968750e+02,-5.722700e+01,2.275400e+01,1.779300e+02,1.972700e+01,8.398400e+01
2.568400e+01,-7.887700e+02,1.041990e+02,-7.099600e+01,4.062500e+01,-4.365200e+01,9.443400e+01,1.201200e+01,7.138700e+01,5.234400e+01,1.212890e+02,-3.256840e+02,-4.257800e+01,-2.742190e+02,-5.986300e+01,4.668000e+01,1.871090e+02,3.134800e+01,9.462900e+01
3.154300e+01,-7.713870e+02,1.118160e+02,-5.371100e+01,4.316400e+01,-4.648400e+01,1.032230e+02,3.584000e+01,8.154300e+01,7.978500e+01,1.317380e+02,-2.938480e+02,-5.117200e+01,-2.451170e+02,-5.029300e+01,7.207000e+01,1.940430e+02,4.462900e+01,1.149410e+02
2.753900e+01,-7.732420e+02,1.045900e+02,-4.726600e+01,3.925800e+01,-4.531200e+01,1.043950e+02,3.720700e+01,8.066400e+01,7.793000e+01,1.332030e+02,-3.144530e+02,-5.117200e+01,-2.585940e+02,-4.375000e+01,6.591800e+01,1.907230e+02,4.345700e+01,1.147460e+02
6.055000e+00,-8.051760e+02,8.662100e+01,-6.582000e+01,1.982400e+01,-2.656300e+01,7.919900e+01,9.375000e+00,5.947300e+01,3.945300e+01,1.037110e+02,-3.680660e+02,-4.951200e+01,-2.907230e+02,-7.285200e+01,2.959000e+01,1.709960e+02,1.748000e+01,8.398400e+01
-1.562500e+01,-8.326170e+02,6.298800e+01,-1.050780e+02,9.766000e+00,-1.259800e+01,7.304700e+01,-1.953000e+00,7.021500e+01,3.476600e+01,8.564500e+01,-3.463870e+02,-4.550800e+01,-2.897460e+02,-8.505900e+01,2.128900e+01,1.513670e+02,-1.758000e+00,7.451200e+01
-3.232400e+01,-8.566410e+02,4.502000e+01,-1.280270e+02,1.005900e+01,-1.250000e+01,7.353500e+01,-1.601600e+01,7.773400e+01,3.632800e+01,7.187500e+01,-3.625000e+02,-4.209000e+01,-3.125980e+02,-8.359400e+01,1.074200e+01,1.398440e+02,-1.093700e+01,6.904300e+01
-5.410200e+01,-8.926760e+02,3.134800e+01,-1.589840e+02,1.279300e+01,-1.552700e+01,6.464800e+01,-4.209000e+01,6.904300e+01,1.425800e+01,2.187500e+01,-4.090820e+02,-4.931600e+01,-3.591800e+02,-1.015630e+02,-2.763700e+01,1.199220e+02,-2.773400e+01,4.765600e+01
-5.468800e+01,-8.949220e+02,3.271500e+01,-1.632810e+02,9.961000e+00,-1.572300e+01,7.451200e+01,-4.560500e+01,8.398400e+01,1.279300e+01,5.107400e+01,-4.144530e+02,-1.513700e+01,-3.462890e+02,-8.886700e+01,-2.998000e+01,1.207030e+02,-2.900400e+01,5.166000e+01
-3.486300e+01,-8.661130e+02,5.761700e+01,-1.273440e+02,2.177700e+01,-2.890600e+01,8.007800e+01,-2.578100e+01,7.900400e+01,2.627000e+01,7.324200e+01,-4.024410e+02,-5.771500e+01,-3.425780e+02,-8.359400e+01,-9.375000e+00,1.413090e+02,-8.203000e+00,6.894500e+01
-4.102000e+00,-8.296880e+02,7.763700e+01,-1.003910e+02,3.281200e+01,-3.632800e+01,9.257800e+01,5.176000e+00,7.910200e+01,5.595700e+01,1.206050e+02,-3.606450e+02,-3.496100e+01,-3.003910e+02,-6.064500e+01,2.832000e+01,1.648440e+02,1.835900e+01,9.404300e+01
9.766000e+00,-8.066410e+02,9.257800e+01,-8.906300e+01,3.886700e+01,-4.209000e+01,1.028320e+02,2.578100e+01,8.496100e+01,7.460900e+01,1.162110e+02,-3.161130e+02,-3.125000e+01,-2.545900e+02,-4.970700e+01,5.517600e+01,1.748050e+02,3.183600e+01,1.101560e+02
1.894500e+01,-7.838870e+02,1.149410e+02,-6.201200e+01,4.326200e+01,-4.716800e+01,1.084960e+02,4.160200e+01,8.369100e+01,8.173800e+01,1.184570e+02,-3.028320e+02,-4.541000e+01,-2.374020e+02,-4.697300e+01,7.060500e+01,1.863280e+02,4.394500e+01,1.215820e+02
1.533200e+01,-7.812500e+02,1.122070e+02,-5.293000e+01,3.837900e+01,-4.404300e+01,1.100590e+02,4.570300e+01,8.222700e+01,8.300800e+01,1.222660e+02,-3.091800e+02,-5.986300e+01,-2.445310e+02,-4.462900e+01,6.953100e+01,1.850590e+02,4.492200e+01,1.228520e+02
-5.664000e+00,-8.130860e+02,6.962900e+01,-7.763700e+01,1.767600e+01,-2.382800e+01,8.388700e+01,2.197300e+01,6.474600e+01,6.220700e+01,1.019530e+02,-3.579100e+02,-5.859400e+01,-2.742190e+02,-6.835900e+01,4.160200e+01,1.628910e+02,1.982400e+01,9.658200e+01
-2.392600e+01,-8.379880e+02,5.156200e+01,-1.010740e+02,5.371000e+00,-7.422000e+00,6.513700e+01,3.418000e+00,5.771500e+01,4.794900e+01,7.851600e+01,-3.662110e+02,-5.429700e+01,-2.742190e+02,-9.023400e+01,3.095700e+01,1.471680e+02,-7.810000e-01,7.871100e+01
-2.734400e+01,-850,4.853500e+01,-1.216800e+02,7.031000e+00,-8.203000e+00,6.357400e+01,-8.594000e+00,6.416000e+01,4.140600e+01,6.406300e+01,-3.487300e+02,-4.658200e+01,-3.004880e+02,-1.059570e+02,2.128900e+01,1.446290e+02,-7.910000e+00,7.216800e+01
-3.691400e+01,-8.723630e+02,4.267600e+01,-1.411130e+02,6.641000e+00,-6.738000e+00,5.605500e+01,-2.919900e+01,5.839800e+01,1.933600e+01,5.507800e+01,-3.784180e+02,-3.818400e+01,-3.374020e+02,-1.214840e+02,-7.031000e+00,1.362300e+02,-1.845700e+01,5.576200e+01
-5.195300e+01,-8.890620e+02,2.978500e+01,-1.486330e+02,-7.810000e-01,-4.004000e+00,4.423800e+01,-4.082000e+01,4.882800e+01,1.660000e+00,3.681600e+01,-4.143550e+02,-5.048800e+01,-3.701170e+02,-1.348630e+02,-2.353500e+01,1.261720e+02,-2.910200e+01,4.482400e+01
-2.871100e+01,-8.548830e+02,4.951200e+01,-1.268550e+02,1.464800e+01,-2.109400e+01,6.259800e+01,-1.875000e+01,6.113300e+01,2.363300e+01,6.035200e+01,-3.751950e+02,-5.166000e+01,-3.179690e+02,-1.198240e+02,6.641000e+00,1.467770e+02,-5.762000e+00,6.923800e+01
-9.800000e-02,-8.184570e+02,7.822300e+01,-9.970700e+01,3.613300e+01,-3.955100e+01,8.974600e+01,4.395000e+00,7.666000e+01,4.707000e+01,9.277300e+01,-3.391600e+02,-3.378900e+01,-2.712890e+02,-8.349600e+01,3.252000e+01,1.699220e+02,2.177700e+01,9.521500e+01
7.617000e+00,-8.010740e+02,9.404300e+01,-8.154300e+01,4.160200e+01,-4.394500e+01,9.668000e+01,1.757800e+01,7.294900e+01,5.263700e+01,1.064450e+02,-3.300780e+02,-3.398400e+01,-2.627930e+02,-7.041000e+01,3.877000e+01,1.772460e+02,3.252000e+01,1.041990e+02
1.796900e+01,-7.799800e+02,1.070310e+02,-5.019500e+01,3.808600e+01,-3.974600e+01,9.912100e+01,3.535200e+01,7.050800e+01,6.328100e+01,1.013670e+02,-3.341800e+02,-7.041000e+01,-2.580080e+02,-6.484400e+01,5.166000e+01,1.882810e+02,4.345700e+01,1.175780e+02
2.392600e+01,-7.718750e+02,1.137700e+02,-4.658200e+01,3.710900e+01,-4.218800e+01,1.018550e+02,4.052700e+01,7.216800e+01,7.070300e+01,9.873000e+01,-3.163090e+02,-8.007800e+01,-2.533200e+02,-6.337900e+01,5.947300e+01,1.917970e+02,4.755900e+01,1.215820e+02
1.308600e+01,-7.936520e+02,1.070310e+02,-7.783200e+01,2.890600e+01,-3.496100e+01,8.320300e+01,1.503900e+01,6.093700e+01,5.127000e+01,8.769500e+01,-3.243160e+02,-5.537100e+01,-2.734380e+02,-8.095700e+01,3.818400e+01,1.755860e+02,2.627000e+01,9.668000e+01
-8.887000e+00,-8.227540e+02,7.314500e+01,-9.335900e+01,9.668000e+00,-1.367200e+01,6.298800e+01,-3.516000e+00,5.654300e+01,3.564500e+01,7.197300e+01,-3.316410e+02,-6.250000e+01,-2.857420e+02,-1.116210e+02,2.070300e+01,1.588870e+02,4.004000e+00,7.793000e+01
-1.660200e+01,-8.422850e+02,5.400400e+01,-1.133790e+02,5.469000e+00,-8.496000e+00,5.869100e+01,-1.914100e+01,5.888700e+01,2.041000e+01,6.630900e+01,-3.536130e+02,-4.755900e+01,-3.022460e+02,-1.166020e+02,8.496000e+00,1.516600e+02,-6.836000e+00,6.718800e+01
-2.597700e+01,-8.638670e+02,5.263700e+01,-1.374020e+02,6.543000e+00,-9.473000e+00,5.195300e+01,-4.550800e+01,5.214800e+01,-3.910000e-01,4.931600e+01,-4.015620e+02,-4.443400e+01,-3.243160e+02,-1.244140e+02,-1.816400e+01,1.412110e+02,-1.875000e+01,4.912100e+01
-2.802700e+01,-8.700200e+02,4.052700e+01,-1.442380e+02,4.395000e+00,-9.766000e+00,5.322300e+01,-5.244100e+01,5.517600e+01,-3.320000e+00,5.957000e+01,-4.009770e+02,-3.681600e+01,-3.368160e+02,-1.187500e+02,-3.164100e+01,1.378910e+02,-25,4.580100e+01
-1.054700e+01,-8.417970e+02,6.601600e+01,-1.188480e+02,2.226600e+01,-2.753900e+01,7.343700e+01,-2.734400e+01,7.002000e+01,2.089800e+01,7.998000e+01,-3.566410e+02,-3.574200e+01,-3.118160e+02,-9.951200e+01,-2.051000e+00,1.567380e+02,-2.051000e+00,7.128900e+01
1.093700e+01,-8.092770e+02,8.408200e+01,-9.199200e+01,3.681600e+01,-3.984400e+01,9.365200e+01,-8.790000e-01,8.017600e+01,4.238300e+01,1.089840e+02,-3.343750e+02,-3.154300e+01,-2.861330e+02,-7.646500e+01,2.939500e+01,1.759770e+02,2.207000e+01,9.531200e+01
2.158200e+01,-7.921880e+02,9.853500e+01,-7.861300e+01,4.121100e+01,-4.257800e+01,9.980500e+01,1.347700e+01,7.666000e+01,5.468800e+01,1.190430e+02,-3.276370e+02,-3.310500e+01,-2.754880e+02,-6.181600e+01,4.873000e+01,1.839840e+02,3.369100e+01,1.066410e+02
2.753900e+01,-7.739260e+02,1.131840e+02,-5.449200e+01,4.443400e+01,-4.648400e+01,1.060550e+02,3.007800e+01,7.373000e+01,6.972700e+01,1.204100e+02,-3.206050e+02,-4.931600e+01,-2.683590e+02,-5.244100e+01,6.650400e+01,1.917970e+02,4.335900e+01,1.189450e+02
2.529300e+01,-7.688480e+02,1.164060e+02,-4.794900e+01,4.765600e+01,-5.195300e+01,1.084960e+02,3.574200e+01,7.187500e+01,7.255900e+01,1.072270e+02,-3.194340e+02,-6.054700e+01,-2.560550e+02,-4.648400e+01,6.865200e+01,1.909180e+02,4.541000e+01,1.199220e+02
1.259800e+01,-7.949220e+02,9.775400e+01,-7.636700e+01,2.822300e+01,-3.330100e+01,9.140600e+01,1.503900e+01,6.455100e+01,5.234400e+01,1.033200e+02,-3.448240e+02,-4.130900e+01,-2.892580e+02,-5.830100e+01,4.345700e+01,1.739260e+02,2.431600e+01,9.775400e+01
-3.320000e+00,-8.167970e+02,7.900400e+01,-8.945300e+01,1.181600e+01,-1.582000e+01,7.519500e+01,-5.859000e+00,5.888700e+01,3.584000e+01,9.287100e+01,-3.475590e+02,-3.584000e+01,-2.977540e+02,-8.330100e+01,2.334000e+01,1.612300e+02,2.637000e+00,7.929700e+01
-1.201200e+01,-8.335940e+02,6.845700e+01,-1.064450e+02,1.093700e+01,-1.318400e+01,6.962900e+01,-2.031300e+01,5.937500e+01,2.431600e+01,7.470700e+01,-3.516600e+02,-3.115200e+01,-3.101560e+02,-9.502000e+01,7.227000e+00,1.543950e+02,-8.105000e+00,6.884800e+01
-3.144500e+01,-8.639650e+02,4.502000e+01,-1.362300e+02,1.308600e+01,-1.582000e+01,6.425800e+01,-3.828100e+01,5.761700e+01,8.105000e+00,4.111300e+01,-3.932620e+02,-3.916000e+01,-3.430660e+02,-1.045900e+02,-1.826200e+01,1.373050e+02,-2.158200e+01,5.390600e+01
-4.062500e+01,-8.773440e+02,3.759800e+01,-1.429690e+02,9.766000e+00,-1.601600e+01,5.644500e+01,-4.970700e+01,5.478500e+01,-3.910000e-01,3.027300e+01,-4.166990e+02,-3.056600e+01,-3.378910e+02,-1.118160e+02,-2.021500e+01,1.296870e+02,-3.115200e+01,4.482400e+01
-1.054700e+01,-8.388670e+02,7.119100e+01,-1.204100e+02,2.148400e+01,-2.841800e+01,7.949200e+01,-1.923800e+01,7.470700e+01,3.076200e+01,1.013670e+02,-3.573240e+02,-1.171900e+01,-2.978520e+02,-8.808600e+01,2.031300e+01,1.546870e+02,-5.859000e+00,7.509800e+01
1.543000e+01,-8.035160e+02,9.492200e+01,-9.550800e+01,3.818400e+01,-4.228500e+01,9.492200e+01,3.711000e+00,7.627000e+01,5.332000e+01,1.206050e+02,-3.118160e+02,-1.640600e+01,-2.678710e+02,-6.640600e+01,4.814500e+01,1.756840e+02,1.894500e+01,9.697300e+01
1.826200e+01,-7.919920e+02,1.036130e+02,-6.865200e+01,4.150400e+01,-4.316400e+01,1.014650e+02,6.934000e+00,7.265600e+01,5.820300e+01,1.122070e+02,-3.298830e+02,-2.959000e+01,-2.724610e+02,-5.683600e+01,4.531200e+01,1.809570e+02,2.812500e+01,1.043950e+02
1.777300e+01,-7.805660e+02,1.176760e+02,-5.957000e+01,4.306600e+01,-4.658200e+01,1.104490e+02,2.597700e+01,7.871100e+01,7.226600e+01,1.092770e+02,-3.042970e+02,-4.316400e+01,-2.528320e+02,-4.960900e+01,6.230500e+01,1.836910e+02,3.701200e+01,1.181640e+02
2.841800e+01,-7.631840e+02,1.196290e+02,-4.150400e+01,4.375000e+01,-4.785200e+01,1.191410e+02,3.730500e+01,8.642600e+01,8.164100e+01,1.114260e+02,-3.072270e+02,-5.742200e+01,-2.505860e+02,-4.121100e+01,7.177700e+01,1.926760e+02,4.570300e+01,1.265630e+02
1.191400e+01,-7.889650e+02,8.857400e+01,-6.416000e+01,2.763700e+01,-3.222700e+01,9.951200e+01,1.757800e+01,7.402300e+01,5.927700e+01,1.088870e+02,-3.301760e+02,-4.033200e+01,-2.583010e+02,-6.787100e+01,5.117200e+01,1.745120e+02,2.246100e+01,1.015630e+02
-4.590000e+00,-8.142580e+02,7.441400e+01,-9.912100e+01,1.865200e+01,-2.226600e+01,8.632800e+01,4.980000e+00,7.275400e+01,4.775400e+01,9.628900e+01,-3.293950e+02,-2.832000e+01,-2.737300e+02,-8.056600e+01,4.043000e+01,1.578120e+02,3.418000e+00,8.437500e+01
-1.660200e+01,-8.348630e+02,6.435500e+01,-1.200200e+02,1.377000e+01,-1.572300e+01,7.285200e+01,-6.250000e+00,6.357400e+01,2.548800e+01,8.203100e+01,-3.436520e+02,-2.636700e+01,-2.934570e+02,-8.779300e+01,2.587900e+01,1.482420e+02,-9.766000e+00,6.855500e+01
-2.177700e+01,-8.508790e+02,5.390600e+01,-1.325200e+02,1.455100e+01,-1.777300e+01,7.197300e+01,-2.714800e+01,6.738300e+01,1.503900e+01,7.617200e+01,-3.737300e+02,-2.050800e+01,-3.126950e+02,-8.808600e+01,5.566000e+00,1.436520e+02,-1.728500e+01,5.673800e+01
-3.769500e+01,-8.704100e+02,4.531200e+01,-1.467770e+02,1.084000e+01,-1.640600e+01,6.513700e+01,-4.736300e+01,6.367200e+01,5.176000e+00,6.337900e+01,-4.015620e+02,-1.572300e+01,-3.595700e+02,-9.570300e+01,-2.060500e+01,1.312500e+02,-2.880900e+01,4.462900e+01
-1.982400e+01,-8.440430e+02,6.513700e+01,-1.260740e+02,2.353500e+01,-3.115200e+01,8.046900e+01,-2.060500e+01,7.255900e+01,3.232400e+01,7.773400e+01,-3.673830e+02,-1.953100e+01,-3.112300e+02,-8.339800e+01,1.103500e+01,1.495120e+02,-8.008000e+00,6.777300e+01
9.277000e+00,-8.043950e+02,8.789100e+01,-8.808600e+01,3.916000e+01,-4.541000e+01,9.462900e+01,-7.810000e-01,7.050800e+01,4.941400e+01,1.034180e+02,-3.325200e+02,-8.105000e+00,-2.678710e+02,-5.869100e+01,3.925800e+01,1.750980e+02,1.679700e+01,8.437500e+01
2.255900e+01,-7.828120e+02,1.031250e+02,-6.494100e+01,4.248000e+01,-4.746100e+01,1.025390e+02,1.523400e+01,7.236300e+01,5.918000e+01,1.220700e+02,-3.223630e+02,-2.890600e+01,-2.593750e+02,-4.892600e+01,5.205100e+01,1.840820e+02,2.910200e+01,9.589800e+01
2.470700e+01,-7.716800e+02,1.235350e+02,-4.765600e+01,4.482400e+01,-4.834000e+01,1.086910e+02,3.144500e+01,7.646500e+01,7.099600e+01,1.127930e+02,-3.177730e+02,-5.234400e+01,-2.508790e+02,-4.668000e+01,6.591800e+01,1.890620e+02,3.886700e+01,1.087890e+02
3.154300e+01,-7.607420e+02,1.395510e+02,-4.716800e+01,4.853500e+01,-5.302700e+01,1.082030e+02,3.984400e+01,7.099600e+01,7.529300e+01,1.181640e+02,-2.939450e+02,-5.283200e+01,-2.481450e+02,-4.677700e+01,6.425800e+01,1.936520e+02,4.668000e+01,1.137700e+02
1.494100e+01,-7.827150e+02,8.447300e+01,-7.119100e+01,2.470700e+01,-3.164100e+01,9.668000e+01,2.793000e+01,7.324200e+01,6.650400e+01,1.011720e+02,-3.089840e+02,-4.179700e+01,-2.594730e+02,-6.601600e+01,5.361300e+01,1.746090e+02,25,9.892600e+01
-7.520000e+00,-8.166990e+02,6.914100e+01,-1.008790e+02,1.396500e+01,-1.845700e+01,8.193400e+01,3.906000e+00,6.894500e+01,4.628900e+01,9.541000e+01,-3.295900e+02,-3.310500e+01,-2.815430e+02,-8.779300e+01,2.871100e+01,1.557620e+02,3.418000e+00,7.861300e+01
-2.246100e+01,-8.366210e+02,6.015600e+01,-1.139650e+02,9.766000e+00,-1.152300e+01,7.412100e+01,-1.220700e+01,6.728500e+01,3.242200e+01,7.812500e+01,-3.427730e+02,-3.613300e+01,-3.016600e+02,-9.726600e+01,1.259800e+01,1.473630e+02,-8.301000e+00,6.709000e+01
-3.339800e+01,-8.588870e+02,5.253900e+01,-1.357420e+02,1.123000e+01,-1.328100e+01,6.894500e+01,-3.037100e+01,6.582000e+01,1.425800e+01,6.084000e+01,-3.757810e+02,-3.378900e+01,-3.256840e+02,-1.032230e+02,-3.516000e+00,1.367190e+02,-1.738300e+01,5.498000e+01
-4.511700e+01,-8.776370e+02,2.880900e+01,-1.521480e+02,4.395000e+00,-9.668000e+00,5.605500e+01,-4.326200e+01,5.556600e+01,1.172000e+00,5.146500e+01,-3.948240e+02,-3.418000e+01,-3.458010e+02,-1.155270e+02,-1.943400e+01,125,-3.007800e+01,4.287100e+01
-2.539100e+01,-8.481450e+02,5.019500e+01,-1.176760e+02,1.464800e+01,-2.119100e+01,6.152300e+01,-1.962900e+01,4.824200e+01,2.236300e+01,7.656300e+01,-3.714840e+02,-3.095700e+01,-3.134770e+02,-9.941400e+01,7.813000e+00,1.459960e+02,-1.005900e+01,6.084000e+01
-2.246000e+00,-8.156250e+02,7.880900e+01,-9.101600e+01,2.705100e+01,-3.164100e+01,8.447300e+01,9.570000e+00,6.396500e+01,4.609400e+01,1.089840e+02,-3.522460e+02,-2.753900e+01,-2.873050e+02,-6.777300e+01,3.837900e+01,1.666990e+02,1.503900e+01,8.769500e+01
8.984000e+00,-7.965820e+02,9.658200e+01,-7.119100e+01,3.759800e+01,-3.955100e+01,1.007810e+02,2.070300e+01,7.392600e+01,5.781300e+01,1.138670e+02,-3.595700e+02,-3.730500e+01,-2.796870e+02,-50,4.687500e+01,1.761720e+02,2.929700e+01,1.023440e+02
1.513700e+01,-7.825200e+02,1.025390e+02,-6.728500e+01,3.916000e+01,-4.150400e+01,1.087890e+02,3.710900e+01,8.095700e+01,7.490200e+01,1.161130e+02,-3.169920e+02,-4.482400e+01,-2.586910e+02,-4.521500e+01,6.484400e+01,1.795900e+02,3.779300e+01,1.182620e+02
2.168000e+01,-7.688480e+02,1.163090e+02,-5.839800e+01,4.228500e+01,-4.628900e+01,1.171870e+02,5.146500e+01,8.584000e+01,8.935500e+01,1.261720e+02,-2.890630e+02,-4.951200e+01,-2.308590e+02,-3.632800e+01,8.046900e+01,1.875000e+02,4.843800e+01,1.308590e+02
5.273000e+00,-7.902340e+02,8.750000e+01,-7.421900e+01,2.587900e+01,-3.007800e+01,1.003910e+02,3.066400e+01,7.714800e+01,7.119100e+01,1.155270e+02,-3.126950e+02,-4.267600e+01,-2.530270e+02,-5.556600e+01,5.712900e+01,1.711910e+02,2.822300e+01,1.090820e+02
-1.884800e+01,-8.221680e+02,5.996100e+01,-9.502000e+01,7.715000e+00,-1.093700e+01,7.812500e+01,4.492000e+00,6.123000e+01,4.052700e+01,7.773400e+01,-3.472660e+02,-4.677700e+01,-2.954100e+02,-8.710900e+01,25,1.520510e+02,3.613000e+00,8.359400e+01
-3.076200e+01,-8.432620e+02,5.117200e+01,-1.125000e+02,3.809000e+00,-5.469000e+00,6.562500e+01,-1.025400e+01,5.849600e+01,2.314500e+01,5.175800e+01,-3.745120e+02,-4.834000e+01,-3.058590e+02,-1.030270e+02,3.613000e+00,1.432620e+02,-9.570000e+00,7.080100e+01
-3.750000e+01,-8.636720e+02,5.029300e+01,-1.448240e+02,1.425800e+01,-1.767600e+01,6.503900e+01,-2.646500e+01,5.966800e+01,9.766000e+00,2.255900e+01,-3.791990e+02,-5.976600e+01,-3.161130e+02,-1.048830e+02,-1.044900e+01,1.353520e+02,-1.640600e+01,5.800800e+01
-4.531200e+01,-8.755860e+02,3.720700e+01,-1.546870e+02,3.613000e+00,-8.594000e+00,5.341800e+01,-3.847700e+01,5.312500e+01,3.809000e+00,4.013700e+01,-3.870120e+02,-3.027300e+01,-3.403320e+02,-1.209960e+02,-2.138700e+01,1.292970e+02,-2.675800e+01,4.716800e+01
-2.480500e+01,-8.452150e+02,6.416000e+01,-1.143550e+02,9.473000e+00,-1.406200e+01,6.513700e+01,-1.601600e+01,5.849600e+01,2.705100e+01,7.880900e+01,-3.595700e+02,-2.890600e+01,-3.175780e+02,-1.096680e+02,7.422000e+00,1.531250e+02,-5.469000e+00,6.943400e+01
-1.054700e+01,-8.216800e+02,7.919900e+01,-7.675800e+01,2.197300e+01,-2.597700e+01,7.900400e+01,2.930000e-01,5.947300e+01,3.877000e+01,8.535200e+01,-3.765630e+02,-3.798800e+01,-3.100590e+02,-9.101600e+01,2.431600e+01,1.698240e+02,1.464800e+01,8.525400e+01
-1.950000e-01,-8.041990e+02,9.697300e+01,-7.959000e+01,3.056600e+01,-3.252000e+01,9.355500e+01,1.582000e+01,6.826200e+01,5.029300e+01,1.118160e+02,-3.621090e+02,-5.273400e+01,-2.854490e+02,-7.353500e+01,4.404300e+01,1.758790e+02,2.880900e+01,1.010740e+02
1.377000e+01,-7.789060e+02,9.990200e+01,-7.578100e+01,3.750000e+01,-4.043000e+01,1.092770e+02,3.886700e+01,8.378900e+01,7.490200e+01,1.265630e+02,-2.910160e+02,-4.687500e+01,-2.234370e+02,-5.224600e+01,7.744100e+01,1.843750e+02,4.140600e+01,1.219730e+02
2.714800e+01,-7.560550e+02,1.093750e+02,-4.570300e+01,4.169900e+01,-4.609400e+01,1.166020e+02,5.107400e+01,8.877000e+01,8.847700e+01,1.332030e+02,-2.741210e+02,-5.175800e+01,-2.245120e+02,-4.580100e+01,8.662100e+01,1.973630e+02,5.361300e+01,1.333010e+02
1.093700e+01,-7.825200e+02,9.550800e+01,-6.767600e+01,2.607400e+01,-3.203100e+01,9.335900e+01,2.714800e+01,6.601600e+01,6.171900e+01,1.098630e+02,-3.114260e+02,-4.560500e+01,-2.630860e+02,-6.396500e+01,5.312500e+01,1.791990e+02,3.134800e+01,1.042970e+02
-1.064500e+01,-8.130860e+02,7.177700e+01,-8.935500e+01,1.025400e+01,-1.513700e+01,7.304700e+01,3.906000e+00,5.302700e+01,3.974600e+01,9.052700e+01,-3.557620e+02,-4.101600e+01,-2.959960e+02,-8.388700e+01,2.841800e+01,1.600590e+02,7.813000e+00,7.949200e+01
-2.236300e+01,-8.330080e+02,5.820300e+01,-1.022460e+02,3.125000e+00,-7.227000e+00,6.337900e+01,-1.513700e+01,5.185500e+01,2.255900e+01,7.832000e+01,-3.677730e+02,-4.414100e+01,-3.179690e+02,-9.951200e+01,4.297000e+00,1.513670e+02,-6.543000e+00,6.464800e+01
-2.871100e+01,-8.526370e+02,5.507800e+01,-1.338870e+02,4.590000e+00,-9.082000e+00,5.781300e+01,-3.125000e+01,50,7.617000e+00,6.894500e+01,-3.718750e+02,-3.798800e+01,-3.499020e+02,-1.084960e+02,-1.699200e+01,1.442380e+02,-1.582000e+01,5.166000e+01
-4.033200e+01,-8.730470e+02,3.955100e+01,-1.573240e+02,3.320000e+00,-9.668000e+00,5.341800e+01,-5.175800e+01,4.814500e+01,-5.859000e+00,6.103500e+01,-3.828120e+02,-2.509800e+01,-3.372070e+02,-1.101560e+02,-2.255900e+01,1.331050e+02,-2.724600e+01,3.925800e+01
-3.037100e+01,-8.498050e+02,5.478500e+01,-1.298830e+02,1.640600e+01,-2.334000e+01,7.089800e+01,-3.125000e+01,6.074200e+01,1.113300e+01,8.095700e+01,-3.679690e+02,-2.460900e+01,-3.085940e+02,-9.550800e+01,3.125000e+00,1.479490e+02,-9.375000e+00,6.064500e+01
-8.887000e+00,-8.184570e+02,7.343700e+01,-1.009770e+02,3.046900e+01,-3.525400e+01,9.179700e+01,-1.562000e+00,7.314500e+01,3.779300e+01,9.345700e+01,-3.402340e+02,-3.017600e+01,-2.838870e+02,-75,3.095700e+01,1.671880e+02,1.494100e+01,8.701200e+01
5.371000e+00,-8.008790e+02,1.033200e+02,-8.437500e+01,4.023400e+01,-4.326200e+01,9.765600e+01,5.273000e+00,6.982400e+01,4.619100e+01,9.003900e+01,-3.291020e+02,-5.576200e+01,-2.849610e+02,-7.080100e+01,3.437500e+01,1.771480e+02,2.871100e+01,9.619100e+01
1.025400e+01,-7.858400e+02,1.139650e+02,-6.601600e+01,4.375000e+01,-4.677700e+01,1.020510e+02,1.572300e+01,7.021500e+01,5.722700e+01,9.023400e+01,-3.250980e+02,-6.113300e+01,-2.696290e+02,-6.582000e+01,4.697300e+01,1.819340e+02,3.613300e+01,1.060550e+02
3.466800e+01,-7.504880e+02,1.107420e+02,-3.164100e+01,4.130900e+01,-4.482400e+01,1.175780e+02,4.414100e+01,8.173800e+01,8.447300e+01,1.454100e+02,-2.901370e+02,-3.623000e+01,-2.385740e+02,-3.945300e+01,7.949200e+01,2.018550e+02,5.351600e+01,1.283200e+02
1.367200e+01,-7.807620e+02,9.277300e+01,-6.074200e+01,2.656300e+01,-3.271500e+01,9.902300e+01,1.709000e+01,6.796900e+01,5.898400e+01,1.185550e+02,-3.368160e+02,-3.681600e+01,-2.773440e+02,-5.898400e+01,4.658200e+01,1.813480e+02,3.154300e+01,1.026370e+02
-7.422000e+00,-8.098630e+02,7.607400e+01,-8.681600e+01,1.543000e+01,-2.011700e+01,8.486300e+01,-8.496000e+00,6.582000e+01,4.013700e+01,8.847700e+01,-3.407230e+02,-3.671900e+01,-2.809570e+02,-7.705100e+01,2.773400e+01,1.641600e+02,1.015600e+01,8.300800e+01
-2.568400e+01,-8.344730e+02,6.230500e+01,-1.189450e+02,1.054700e+01,-1.289100e+01,8.105500e+01,-2.041000e+01,7.168000e+01,2.734400e+01,6.718800e+01,-3.463870e+02,-3.584000e+01,-3.003910e+02,-8.466800e+01,1.337900e+01,1.504880e+02,-4.297000e+00,7.158200e+01
-3.837900e+01,-8.583980e+02,5.742200e+01,-1.376950e+02,1.269500e+01,-1.523400e+01,8.007800e+01,-4.238300e+01,7.314500e+01,5.859000e+00,5.107400e+01,-3.891600e+02,-2.988300e+01,-3.375000e+02,-9.013700e+01,-2.002000e+01,1.407230e+02,-1.367200e+01,5.820300e+01
-4.043000e+01,-8.731450e+02,4.277300e+01,-150,7.227000e+00,-1.064500e+01,6.230500e+01,-5.800800e+01,5.644500e+01,-7.324000e+00,6.201200e+01,-3.958010e+02,-1.142600e+01,-3.379880e+02,-1.034180e+02,-2.959000e+01,1.363280e+02,-2.382800e+01,4.267600e+01
-2.343800e+01,-8.480470e+02,6.630900e+01,-1.221680e+02,2.089800e+01,-2.519500e+01,7.421900e+01,-3.964800e+01,6.191400e+01,1.005900e+01,7.822300e+01,-3.673830e+02,-1.523400e+01,-3.169920e+02,-9.511700e+01,-8.398000e+00,1.550780e+02,-4.297000e+00,6.123000e+01
-3.711000e+00,-8.154300e+02,8.037100e+01,-9.921900e+01,3.632800e+01,-3.994100e+01,9.433600e+01,-1.406200e+01,6.748000e+01,2.636700e+01,1.058590e+02,-3.463870e+02,-1.474600e+01,-2.956050e+02,-6.328100e+01,1.503900e+01,1.719730e+02,1.865200e+01,8.310500e+01
1.259800e+01,-7.928710e+02,9.951200e+01,-8.261700e+01,4.423800e+01,-4.502000e+01,1.028320e+02,6.348000e+00,6.318400e+01,4.091800e+01,1.137700e+02,-3.233400e+02,-2.666000e+01,-2.684570e+02,-4.697300e+01,4.130900e+01,1.842770e+02,3.378900e+01,9.560500e+01
1.748000e+01,-7.775390e+02,1.104490e+02,-6.220700e+01,4.238300e+01,-4.462900e+01,1.033200e+02,1.503900e+01,6.220700e+01,5.742200e+01,9.794900e+01,-3.099610e+02,-4.355500e+01,-2.739260e+02,-4.677700e+01,5.459000e+01,1.885740e+02,3.974600e+01,1.048830e+02
3.222700e+01,-7.578130e+02,1.266600e+02,-4.433600e+01,4.794900e+01,-5.244100e+01,1.155270e+02,3.378900e+01,7.246100e+01,7.880900e+01,1.172850e+02,-2.986330e+02,-4.345700e+01,-2.486330e+02,-3.271500e+01,7.509800e+01,2.003910e+02,5.449200e+01,1.210940e+02
2.226600e+01,-7.755860e+02,1.124020e+02,-6.357400e+01,3.476600e+01,-4.043000e+01,1.047850e+02,1.933600e+01,6.923800e+01,6.084000e+01,100,-3.170900e+02,-5.078100e+01,-2.591800e+02,-4.570300e+01,5.214800e+01,1.873050e+02,3.759800e+01,1.024410e+02
-6.055000e+00,-8.080080e+02,7.968800e+01,-9.394500e+01,1.982400e+01,-2.285200e+01,8.955100e+01,2.930000e-01,6.601600e+01,4.111300e+01,8.584000e+01,-3.407230e+02,-3.906200e+01,-2.849610e+02,-6.728500e+01,2.978500e+01,1.657230e+02,1.494100e+01,8.271500e+01
-2.168000e+01,-8.278320e+02,5.878900e+01,-1.113280e+02,9.570000e+00,-1.142600e+01,75,-1.591800e+01,6.279300e+01,2.685500e+01,6.709000e+01,-3.498050e+02,-4.628900e+01,-3.011720e+02,-1.007810e+02,1.347700e+01,1.549800e+02,0,6.943400e+01
-2.363300e+01,-8.415040e+02,5.595700e+01,-1.209960e+02,1.279300e+01,-1.367200e+01,7.207000e+01,-3.222700e+01,6.201200e+01,1.162100e+01,5.996100e+01,-3.690430e+02,-3.525400e+01,-3.243160e+02,-1.095700e+02,-5.859000e+00,1.539060e+02,-6.738000e+00,5.722700e+01
-4.062500e+01,-8.701170e+02,3.867200e+01,-1.427730e+02,2.930000e+00,-7.813000e+00,5.654300e+01,-5.712900e+01,4.873000e+01,-1.396500e+01,4.296900e+01,-4.150390e+02,-3.789100e+01,-3.599610e+02,-1.247070e+02,-3.271500e+01,1.375000e+02,-2.470700e+01,3.437500e+01
-3.085900e+01,-8.515620e+02,5.351600e+01,-1.300780e+02,1.425800e+01,-2.197300e+01,7.050800e+01,-4.111300e+01,5.585900e+01,3.027000e+00,5.361300e+01,-3.820310e+02,-4.296900e+01,-3.328120e+02,-1.052730e+02,-1.084000e+01,1.486330e+02,-1.054700e+01,5.175800e+01
-2.734000e+00,-8.167970e+02,8.554700e+01,-1.044920e+02,3.476600e+01,-4.062500e+01,9.296900e+01,-1.386700e+01,6.826200e+01,3.144500e+01,8.212900e+01,-3.459960e+02,-3.369100e+01,-3.019530e+02,-7.548800e+01,1.855500e+01,1.719730e+02,1.748000e+01,7.695300e+01
1.416000e+01,-7.929690e+02,1.020510e+02,-7.939500e+01,4.169900e+01,-4.472700e+01,1.000980e+02,7.910000e+00,6.572300e+01,4.834000e+01,9.941400e+01,-3.429690e+02,-3.427700e+01,-2.818360e+02,-6.044900e+01,3.486300e+01,1.863280e+02,3.437500e+01,9.043000e+01
2.041000e+01,-775,1.072270e+02,-6.513700e+01,4.267600e+01,-4.550800e+01,1.094730e+02,2.880900e+01,7.226600e+01,6.503900e+01,1.083980e+02,-3.075200e+02,-3.759800e+01,-2.528320e+02,-4.482400e+01,5.634800e+01,1.910160e+02,4.326200e+01,1.055660e+02
3.105500e+01,-7.521480e+02,1.180660e+02,-4.199200e+01,4.638700e+01,-5.107400e+01,1.188480e+02,4.580100e+01,7.646500e+01,7.646500e+01,1.140630e+02,-2.860350e+02,-4.853500e+01,-2.341800e+02,-2.753900e+01,6.738300e+01,2.020510e+02,5.683600e+01,1.202150e+02
1.464800e+01,-7.789060e+02,1.000980e+02,-6.513700e+01,3.017600e+01,-3.515600e+01,9.873000e+01,2.216800e+01,6.162100e+01,5.175800e+01,9.316400e+01,-325,-5.224600e+01,-2.648440e+02,-5.781300e+01,3.642600e+01,1.849610e+02,3.632800e+01,9.716800e+01
-9.668000e+00,-8.097660e+02,7.539100e+01,-9.101600e+01,1.406200e+01,-1.660200e+01,7.919900e+01,1.074000e+00,5.390600e+01,3.310500e+01,6.748000e+01,-3.488280e+02,-5.371100e+01,-2.957030e+02,-8.818400e+01,1.689500e+01,1.654300e+02,1.347700e+01,7.763700e+01
-2.939500e+01,-8.355470e+02,5.878900e+01,-1.133790e+02,5.566000e+00,-8.105000e+00,6.816400e+01,-1.826200e+01,5.097700e+01,1.875000e+01,4.521500e+01,-3.580080e+02,-4.902300e+01,-3.141600e+02,-9.804700e+01,1.950000e-01,1.511720e+02,-3.125000e+00,6.377000e+01
-3.320300e+01,-8.516600e+02,5.302700e+01,-1.289060e+02,7.031000e+00,-9.375000e+00,6.474600e+01,-2.978500e+01,5.371100e+01,8.398000e+00,3.574200e+01,-3.815430e+02,-3.984400e+01,-3.292970e+02,-1.070310e+02,-1.328100e+01,1.472660e+02,-9.082000e+00,5.546900e+01
-4.902300e+01,-8.752930e+02,3.662100e+01,-1.495120e+02,6.840000e-01,-5.078000e+00,5.214800e+01,-4.980500e+01,4.716800e+01,-1.201200e+01,3.027300e+01,-4.276370e+02,-2.656300e+01,-3.586910e+02,-1.256840e+02,-3.759800e+01,1.345700e+02,-2.558600e+01,3.837900e+01
-4.033200e+01,-8.565430e+02,4.384800e+01,-1.304690e+02,1.064500e+01,-1.806600e+01,5.566400e+01,-3.125000e+01,4.052700e+01,3.418000e+00,2.168000e+01,-3.921880e+02,-5.439500e+01,-3.323240e+02,-1.265630e+02,-1.396500e+01,1.459960e+02,-1.123000e+01,5.312500e+01
-1.923800e+01,-8.308590e+02,7.334000e+01,-1.096680e+02,3.134800e+01,-3.613300e+01,7.636700e+01,-1.171900e+01,4.580100e+01,2.294900e+01,4.277300e+01,-3.613280e+02,-5.058600e+01,-3.185550e+02,-9.912100e+01,4.688000e+00,1.637700e+02,1.259800e+01,7.519500e+01
4.199000e+00,-8.001950e+02,8.974600e+01,-7.705100e+01,3.310500e+01,-3.486300e+01,100,1.250000e+01,6.669900e+01,4.599600e+01,1.035160e+02,-3.551760e+02,-2.519500e+01,-2.972660e+02,-6.132800e+01,2.724600e+01,1.833010e+02,3.388700e+01,1.005860e+02
8.203000e+00,-7.847660e+02,9.580100e+01,-7.021500e+01,3.261700e+01,-3.574200e+01,1.068360e+02,2.949200e+01,7.529300e+01,6.162100e+01,9.873000e+01,-3.219730e+02,-4.628900e+01,-2.720700e+02,-5.712900e+01,4.755900e+01,1.851560e+02,4.130900e+01,1.145510e+02
1.982400e+01,-7.657230e+02,1.084960e+02,-5.166000e+01,3.828100e+01,-4.335900e+01,1.165040e+02,4.814500e+01,8.134800e+01,8.046900e+01,1.000980e+02,-2.976560e+02,-6.357400e+01,-2.500980e+02,-5.244100e+01,6.591800e+01,1.960940e+02,5.429700e+01,1.306640e+02
-4.880000e-01,-7.953130e+02,9.013700e+01,-7.431600e+01,2.607400e+01,-3.252000e+01,1.020510e+02,1.943400e+01,7.187500e+01,5.449200e+01,6.875000e+01,-3.447270e+02,-7.294900e+01,-2.884770e+02,-6.835900e+01,3.105500e+01,1.746090e+02,3.242200e+01,1.068360e+02
-2.080100e+01,-8.243160e+02,6.650400e+01,-9.892600e+01,1.250000e+01,-1.816400e+01,8.115200e+01,-5.371000e+00,5.703100e+01,2.900400e+01,3.818400e+01,-3.721680e+02,-6.074200e+01,-3.131840e+02,-8.505900e+01,4.688000e+00,1.542970e+02,8.398000e+00,8.281200e+01
-3.134800e+01,-8.379880e+02,6.357400e+01,-1.184570e+02,4.880000e-01,-2.832000e+00,6.562500e+01,-9.961000e+00,5.136700e+01,2.988300e+01,4.472700e+01,-3.735350e+02,-5.312500e+01,-3.504880e+02,-1.099610e+02,-3.027000e+00,1.488280e+02,-3.809000e+00,7.324200e+01
-4.589800e+01,-8.606450e+02,6.074200e+01,-1.233400e+02,-2.441000e+00,0,4.345700e+01,-2.734400e+01,2.773400e+01,1.152300e+01,1.377000e+01,-4.490230e+02,-6.826200e+01,-3.863280e+02,-1.380860e+02,-2.949200e+01,1.425780e+02,-1.445300e+01,5.273400e+01
-4.853500e+01,-8.747070e+02,3.691400e+01,-1.375000e+02,-5.273000e+00,7.810000e-01,3.281200e+01,-5.517600e+01,1.816400e+01,-1.210900e+01,2.011700e+01,-4.304690e+02,-2.060500e+01,-3.430660e+02,-1.356450e+02,-3.857400e+01,1.356450e+02,-2.841800e+01,3.320300e+01
-2.578100e+01,-8.445310e+02,4.638700e+01,-1.093750e+02,3.418000e+00,-1.005900e+01,4.931600e+01,-3.681600e+01,3.281200e+01,3.906000e+00,3.906200e+01,-3.815430e+02,-3.720700e+01,-300,-1.166020e+02,-1.201200e+01,1.564450e+02,-1.044900e+01,5.498000e+01
-7.520000e+00,-8.227540e+02,8.330100e+01,-9.775400e+01,2.441400e+01,-2.939500e+01,7.627000e+01,-5.762000e+00,5.156200e+01,3.017600e+01,6.777300e+01,-3.716800e+02,-4.150400e+01,-2.903320e+02,-9.033200e+01,1.611300e+01,1.728520e+02,1.630900e+01,8.437500e+01
2.930000e+00,-8.070310e+02,9.462900e+01,-1.017580e+02,3.300800e+01,-3.671900e+01,9.462900e+01,1.757800e+01,6.367200e+01,5.146500e+01,8.652300e+01,-3.433590e+02,-3.828100e+01,-2.792970e+02,-6.884800e+01,3.300800e+01,1.786130e+02,3.193400e+01,1.036130e+02
1.171900e+01,-7.867190e+02,9.267600e+01,-9.404300e+01,3.857400e+01,-4.189500e+01,1.122070e+02,3.496100e+01,8.369100e+01,7.207000e+01,1.043950e+02,-2.851560e+02,-3.222700e+01,-2.498050e+02,-4.726600e+01,5.703100e+01,1.837890e+02,4.209000e+01,1.216800e+02
2.480500e+01,-7.632810e+02,1.113280e+02,-6.494100e+01,4.365200e+01,-4.834000e+01,1.218750e+02,5.341800e+01,9.003900e+01,8.544900e+01,1.167970e+02,-2.879880e+02,-5.410200e+01,-2.285160e+02,-4.189500e+01,7.812500e+01,1.976560e+02,5.742200e+01,1.368160e+02
1.015600e+01,-7.836910e+02,1.009770e+02,-7.363300e+01,2.802700e+01,-3.378900e+01,9.492200e+01,2.988300e+01,6.416000e+01,6.308600e+01,8.935500e+01,-3.167970e+02,-6.035200e+01,-2.637700e+02,-6.386700e+01,4.580100e+01,1.841800e+02,3.877000e+01,1.098630e+02
-9.277000e+00,-8.106450e+02,7.812500e+01,-9.716800e+01,1.074200e+01,-1.533200e+01,7.187500e+01,8.008000e+00,4.873000e+01,4.316400e+01,6.445300e+01,-3.402340e+02,-5.078100e+01,-2.927730e+02,-8.564500e+01,1.923800e+01,1.666020e+02,1.445300e+01,8.544900e+01
-2.334000e+01,-8.322270e+02,6.044900e+01,-1.194340e+02,4.297000e+00,-6.543000e+00,6.640600e+01,-2.734000e+00,5.498000e+01,3.574200e+01,6.015600e+01,-3.487300e+02,-4.111300e+01,-2.984370e+02,-9.951200e+01,1.357400e+01,1.549800e+02,-1.074000e+00,7.568400e+01
-2.558600e+01,-8.475590e+02,5.136700e+01,-1.288090e+02,4.883000e+00,-7.129000e+00,6.367200e+01,-1.503900e+01,5.537100e+01,2.812500e+01,6.806600e+01,-3.675780e+02,-3.007800e+01,-3.123050e+02,-1.083980e+02,6.840000e-01,1.519530e+02,-6.641000e+00,6.699200e+01
-4.560500e+01,-8.743160e+02,2.656300e+01,-1.483400e+02,-5.566000e+00,-5.860000e-01,4.951200e+01,-3.935500e+01,4.326200e+01,7.227000e+00,4.619100e+01,-4.027340e+02,-2.509800e+01,-3.442380e+02,-1.268550e+02,-2.636700e+01,1.352540e+02,-2.509800e+01,4.570300e+01
-3.994100e+01,-8.644530e+02,4.404300e+01,-1.447270e+02,7.617000e+00,-1.640600e+01,6.181600e+01,-2.919900e+01,4.814500e+01,1.220700e+01,4.091800e+01,-3.888670e+02,-3.300800e+01,-3.316410e+02,-1.115230e+02,-9.473000e+00,1.435550e+02,-1.386700e+01,5.849600e+01
-2.627000e+01,-8.439450e+02,7.119100e+01,-1.277340e+02,3.252000e+01,-3.867200e+01,8.398400e+01,-1.679700e+01,5.634800e+01,1.875000e+01,3.740200e+01,-3.763670e+02,-4.755900e+01,-3.190430e+02,-8.613300e+01,9.770000e-01,1.570310e+02,7.422000e+00,7.685500e+01
-1.270000e+00,-8.097660e+02,8.886700e+01,-9.414100e+01,3.447300e+01,-3.867200e+01,1.054690e+02,8.691000e+00,75,4.531200e+01,9.502000e+01,-3.496090e+02,-3.173800e+01,-2.852540e+02,-6.132800e+01,2.763700e+01,1.784180e+02,2.988300e+01,1.016600e+02
8.691000e+00,-7.891600e+02,9.453100e+01,-7.421900e+01,3.105500e+01,-3.447300e+01,1.111330e+02,2.519500e+01,7.890600e+01,6.455100e+01,1.126950e+02,-3.319340e+02,-3.955100e+01,-2.713870e+02,-4.726600e+01,4.921900e+01,1.865230e+02,3.925800e+01,1.149410e+02
2.373000e+01,-7.635740e+02,1.123050e+02,-5.078100e+01,3.945300e+01,-4.433600e+01,1.183590e+02,4.628900e+01,7.978500e+01,8.525400e+01,1.172850e+02,-3.055660e+02,-5.341800e+01,-2.508790e+02,-3.496100e+01,7.226600e+01,2.006840e+02,5.527300e+01,1.303710e+02
1.425800e+01,-7.803710e+02,9.902300e+01,-6.669900e+01,25,-3.232400e+01,9.599600e+01,2.880900e+01,6.103500e+01,6.611300e+01,1.008790e+02,-3.257810e+02,-5.732400e+01,-2.783200e+02,-5.888700e+01,4.746100e+01,1.875000e+02,3.681600e+01,1.071290e+02
-7.129000e+00,-8.132810e+02,8.164100e+01,-9.570300e+01,9.961000e+00,-1.513700e+01,7.666000e+01,3.320000e+00,5.019500e+01,3.935500e+01,7.451200e+01,-350,-6.220700e+01,-3.119140e+02,-8.691400e+01,1.904300e+01,1.667970e+02,1.171900e+01,8.164100e+01
-3.681600e+01,-8.482420e+02,4.882800e+01,-1.272460e+02,1.074000e+00,-4.297000e+00,6.630900e+01,-1.640600e+01,4.990200e+01,2.363300e+01,2.998000e+01,-3.871090e+02,-7.207000e+01,-3.376950e+02,-1.052730e+02,9.800000e-02,1.445310e+02,-8.398000e+00,6.660200e+01
-3.652300e+01,-8.539060e+02,4.794900e+01,-1.270510e+02,7.715000e+00,-9.863000e+00,6.865200e+01,-4.248000e+01,5.537100e+01,9.766000e+00,3.505900e+01,-3.782230e+02,-4.013700e+01,-3.229490e+02,-1.026370e+02,-1.318400e+01,1.468750e+02,-1.162100e+01,5.712900e+01
-4.697300e+01,-8.735350e+02,3.359400e+01,-1.402340e+02,-2.539000e+00,-7.810000e-01,5.752000e+01,-6.191400e+01,5.029300e+01,-1.689500e+01,4.199200e+01,-4.030270e+02,-5.957000e+00,-3.459960e+02,-1.120120e+02,-3.652300e+01,1.381840e+02,-2.705100e+01,3.740200e+01
-3.515600e+01,-8.586910e+02,5.127000e+01,-1.351560e+02,1.035200e+01,-1.533200e+01,7.236300e+01,-4.580100e+01,5.898400e+01,-5.860000e-01,6.416000e+01,-3.940430e+02,-2.558600e+01,-3.208010e+02,-9.765600e+01,-1.630900e+01,1.488280e+02,-1.357400e+01,5.293000e+01
-9.570000e+00,-8.236330e+02,8.359400e+01,-1.100590e+02,3.056600e+01,-3.408200e+01,9.248000e+01,-2.099600e+01,6.679700e+01,3.046900e+01,7.988300e+01,-3.619140e+02,-3.203100e+01,-3.135740e+02,-6.767600e+01,1.279300e+01,1.708010e+02,1.250000e+01,7.802700e+01
-1.270000e+00,-8.059570e+02,1.162110e+02,-7.822300e+01,4.003900e+01,-4.248000e+01,9.882800e+01,-1.152300e+01,6.269500e+01,3.535200e+01,7.265600e+01,-3.912110e+02,-4.560500e+01,-3.240230e+02,-5.966800e+01,1.513700e+01,1.818360e+02,2.812500e+01,8.642600e+01
4.883000e+00,-7.907230e+02,1.169920e+02,-8.105500e+01,4.033200e+01,-4.267600e+01,1.139650e+02,8.887000e+00,7.773400e+01,5.410200e+01,9.238300e+01,-3.351560e+02,-4.658200e+01,-2.671880e+02,-4.433600e+01,4.404300e+01,1.839840e+02,3.691400e+01,1.034180e+02
3.066400e+01,-7.545900e+02,1.018550e+02,-4.648400e+01,4.492200e+01,-4.824200e+01,1.305660e+02,3.681600e+01,9.287100e+01,8.476600e+01,1.401370e+02,-2.857420e+02,-3.642600e+01,-2.218750e+02,-1.621100e+01,8.007800e+01,2.044920e+02,5.595700e+01,1.283200e+02
